SpectraSuite Data File
++++++++++++++++++++++++++++++++++++
Date: Tue Sep 20 12:47:45 EDT 2022
User: Laboratoire
Dark Spectrum Present: No
Reference Spectrum Present: No
Number of Sampled Component Spectra: 1
Spectrometers: FLMT00174
Integration Time (usec): 40000 (FLMT00174)
Spectra Averaged: 25 (FLMT00174)
Boxcar Smoothing: 0 (FLMT00174)
Correct for Electrical Dark: No (FLMT00174)
Strobe/Lamp Enabled: No (FLMT00174)
Correct for Detector Non-linearity: No (FLMT00174)
Correct for Stray Light: No (FLMT00174)
Number of Pixels in Processed Spectrum: 3648
>>>>>Begin Processed Spectral Data<<<<<
345.74	3182.22
345.96	3182.22
346.18	3182.22
346.39	3206.63
346.61	3339.34
346.83	3324.02
347.05	3341.47
347.27	3305.99
347.49	3347.69
347.71	3361.62
347.93	3355.97
348.15	3350.48
348.36	3370.06
348.58	3348.67
348.80	3333.85
349.02	3352.20
349.24	3357.69
349.46	3538.73
349.68	3566.58
349.90	3571.00
350.11	3532.17
350.33	3541.76
350.55	3551.67
350.77	3549.13
350.99	3518.82
351.21	3550.28
351.43	3543.15
351.65	3567.48
351.86	3545.44
352.08	3561.75
352.30	3528.65
352.52	3576.24
352.74	3494.98
352.96	3529.39
353.18	3579.11
353.39	3562.56
353.61	3541.59
353.83	3563.96
354.05	3628.51
354.27	3573.38
354.49	3575.67
354.70	3545.28
354.92	3539.22
355.14	3517.35
355.36	3521.69
355.58	3546.84
355.80	3552.00
356.02	3560.60
356.23	3583.70
356.45	3540.36
356.67	3564.86
356.89	3580.75
357.11	3542.49
357.33	3605.74
357.54	3527.01
357.76	3524.06
357.98	3525.37
358.20	3563.55
358.42	3533.73
358.63	3543.72
358.85	3567.48
359.07	3573.30
359.29	3503.09
359.51	3498.42
359.73	3538.32
359.94	3544.62
360.16	3510.87
360.38	3528.65
360.60	3517.35
360.82	3554.86
361.03	3561.50
361.25	3535.94
361.47	3592.14
361.69	3584.60
361.91	3540.53
362.12	3531.60
362.34	3564.12
362.56	3586.98
362.78	3553.72
363.00	3569.69
363.21	3534.96
363.43	3562.48
363.65	3520.87
363.87	3545.69
364.09	3562.32
364.30	3522.10
364.52	3521.44
364.74	3574.03
364.96	3549.38
365.17	3549.70
365.39	3554.86
365.61	3502.44
365.83	3557.49
366.05	3518.66
366.26	3529.14
366.48	3542.33
366.70	3590.50
366.92	3563.22
367.13	3540.20
367.35	3543.07
367.57	3553.31
367.79	3532.34
368.01	3577.80
368.22	3579.44
368.44	3540.20
368.66	3550.28
368.88	3574.61
369.09	3530.29
369.31	3576.90
369.53	3522.92
369.75	3538.64
369.96	3581.24
370.18	3535.29
370.40	3552.57
370.62	3557.81
370.83	3520.54
371.05	3592.63
371.27	3572.56
371.49	3537.33
371.70	3560.52
371.92	3543.97
372.14	3541.27
372.36	3515.87
372.57	3587.71
372.79	3560.03
373.01	3544.38
373.22	3528.73
373.44	3554.29
373.66	3534.88
373.88	3562.40
374.09	3527.01
374.31	3518.33
374.53	3515.63
374.75	3562.40
374.96	3565.84
375.18	3574.44
375.40	3530.70
375.61	3537.58
375.83	3532.42
376.05	3535.12
376.27	3572.89
376.48	3512.35
376.70	3549.79
376.92	3538.89
377.13	3513.58
377.35	3518.41
377.57	3549.79
377.79	3511.86
378.00	3553.64
378.22	3562.48
378.44	3518.41
378.65	3587.63
378.87	3556.34
379.09	3555.93
379.30	3530.62
379.52	3553.64
379.74	3538.73
379.96	3530.70
380.17	3538.64
380.39	3523.57
380.61	3545.69
380.82	3537.42
381.04	3519.15
381.26	3548.97
381.47	3574.20
381.69	3566.33
381.91	3536.02
382.12	3556.34
382.34	3581.24
382.56	3536.68
382.77	3539.87
382.99	3536.35
383.21	3540.69
383.42	3571.41
383.64	3561.42
383.86	3557.73
384.07	3563.14
384.29	3534.88
384.51	3523.00
384.72	3537.99
384.94	3527.83
385.16	3520.95
385.37	3538.97
385.59	3508.33
385.81	3556.91
386.02	3484.66
386.24	3565.19
386.46	3501.37
386.67	3554.95
386.89	3589.52
387.11	3587.39
387.32	3538.56
387.54	3549.46
387.76	3557.90
387.97	3598.94
388.19	3548.47
388.40	3544.30
388.62	3528.90
388.84	3564.69
389.05	3539.71
389.27	3563.30
389.49	3562.24
389.70	3502.52
389.92	3533.07
390.14	3525.46
390.35	3540.69
390.57	3546.18
390.78	3496.37
391.00	3511.20
391.22	3508.91
391.43	3529.72
391.65	3542.41
391.86	3561.34
392.08	3535.94
392.30	3523.24
392.51	3532.34
392.73	3595.17
392.95	3545.44
393.16	3507.11
393.38	3540.28
393.59	3506.94
393.81	3568.22
394.03	3542.33
394.24	3539.38
394.46	3528.08
394.67	3530.78
394.89	3516.36
395.11	3539.22
395.32	3575.59
395.54	3552.90
395.75	3562.32
395.97	3520.95
396.19	3507.68
396.40	3556.83
396.62	3558.55
396.83	3532.83
397.05	3540.20
397.26	3539.38
397.48	3517.84
397.70	3531.11
397.91	3552.49
398.13	3508.09
398.34	3556.58
398.56	3572.64
398.78	3575.84
398.99	3600.82
399.21	3499.90
399.42	3574.52
399.64	3505.06
399.85	3538.40
400.07	3525.86
400.29	3598.04
400.50	3534.96
400.72	3565.19
400.93	3523.16
401.15	3522.59
401.36	3523.74
401.58	3534.22
401.79	3548.80
402.01	3560.84
402.23	3546.51
402.44	3602.38
402.66	3548.23
402.87	3558.30
403.09	3565.19
403.30	3553.14
403.52	3518.49
403.73	3494.82
403.95	3525.78
404.16	3538.07
404.38	3532.58
404.60	3513.66
404.81	3552.82
405.03	3554.21
405.24	3572.97
405.46	3559.04
405.67	3568.71
405.89	3550.44
406.10	3551.83
406.32	3526.52
406.53	3580.18
406.75	3634.65
406.96	3527.59
407.18	3557.08
407.39	3531.19
407.61	3597.54
407.82	3521.52
408.04	3572.48
408.25	3553.14
408.47	3524.55
408.68	3543.48
408.90	3517.02
409.12	3566.50
409.33	3577.88
409.55	3547.25
409.76	3566.74
409.98	3579.19
410.19	3579.52
410.41	3555.36
410.62	3557.16
410.84	3550.19
411.05	3560.76
411.27	3586.32
411.48	3563.71
411.70	3591.40
411.91	3554.29
412.12	3572.23
412.34	3530.21
412.55	3553.80
412.77	3557.24
412.98	3563.14
413.20	3546.34
413.41	3572.48
413.63	3558.14
413.84	3556.58
414.06	3594.10
414.27	3535.20
414.49	3552.41
414.70	3582.63
414.92	3555.44
415.13	3555.19
415.35	3584.85
415.56	3594.10
415.78	3560.19
415.99	3593.12
416.21	3564.04
416.42	3613.44
416.63	3597.95
416.85	3594.76
417.06	3594.35
417.28	3615.57
417.49	3595.00
417.71	3589.68
417.92	3555.68
418.14	3573.95
418.35	3581.57
418.57	3615.98
418.78	3589.84
418.99	3561.50
419.21	3599.92
419.42	3564.61
419.64	3575.34
419.85	3601.31
420.07	3607.46
420.28	3608.03
420.50	3617.45
420.71	3597.95
420.92	3589.60
421.14	3613.93
421.35	3556.83
421.57	3575.84
421.78	3587.30
422.00	3606.15
422.21	3606.96
422.42	3611.39
422.64	3597.79
422.85	3622.20
423.07	3618.43
423.28	3606.39
423.50	3588.21
423.71	3593.37
423.92	3645.88
424.14	3616.71
424.35	3607.29
424.57	3645.47
424.78	3667.26
424.99	3617.12
425.21	3598.61
425.42	3619.01
425.64	3626.30
425.85	3624.00
426.06	3687.82
426.28	3629.66
426.49	3627.61
426.71	3646.20
426.92	3607.87
427.13	3666.03
427.35	3680.94
427.56	3672.75
427.78	3637.19
427.99	3653.49
428.20	3682.33
428.42	3684.87
428.63	3655.87
428.84	3639.81
429.06	3667.67
429.27	3686.26
429.49	3628.43
429.70	3638.50
429.91	3681.76
430.13	3666.44
430.34	3617.37
430.56	3704.04
430.77	3679.95
430.98	3667.26
431.20	3726.48
431.41	3692.73
431.62	3643.25
431.84	3672.17
432.05	3673.89
432.26	3714.85
432.48	3691.42
432.69	3748.19
432.91	3719.85
433.12	3692.90
433.33	3717.23
433.55	3762.77
433.76	3691.59
433.97	3743.93
434.19	3717.72
434.40	3710.26
434.61	3709.85
434.83	3741.88
435.04	3723.04
435.25	3721.90
435.47	3734.27
435.68	3743.77
435.89	3753.03
436.11	3714.03
436.32	3772.60
436.53	3732.79
436.75	3738.28
436.96	3749.75
437.17	3742.79
437.39	3730.99
437.60	3738.36
437.81	3723.37
438.03	3777.27
438.24	3742.38
438.45	3792.35
438.67	3724.85
438.88	3812.33
439.09	3808.57
439.31	3823.15
439.52	3799.97
439.73	3827.74
439.94	3761.63
440.16	3807.01
440.37	3789.15
440.58	3847.56
440.80	3783.91
441.01	3796.28
441.22	3815.53
441.44	3786.61
441.65	3834.21
441.86	3805.62
442.08	3851.41
442.29	3845.68
442.50	3847.31
442.71	3838.47
442.93	3848.79
443.14	3829.37
443.35	3864.44
443.57	3860.34
443.78	3805.62
443.99	3849.20
444.20	3869.43
444.42	3832.81
444.63	3837.65
444.84	3860.83
445.06	3877.13
445.27	3888.27
445.48	3852.64
445.69	3885.00
445.91	3853.70
446.12	3877.46
446.33	3884.01
446.54	3869.60
446.76	3882.70
446.97	3858.21
447.18	3834.37
447.39	3919.98
447.61	3897.53
447.82	3886.64
448.03	3919.73
448.25	3918.09
448.46	3913.09
448.67	3955.69
448.88	3916.62
449.10	3952.58
449.31	3940.21
449.52	3952.17
449.73	3925.14
449.95	3966.51
450.16	3953.56
450.37	3980.60
450.58	3940.46
450.79	3928.25
451.01	3929.64
451.22	3990.26
451.43	3973.55
451.64	4017.21
451.86	4017.62
452.07	3963.47
452.28	3953.89
452.49	4063.33
452.71	4001.65
452.92	4017.71
453.13	4013.61
453.34	4063.25
453.55	4021.88
453.77	4020.24
453.98	4036.55
454.19	4027.45
454.40	4010.17
454.62	4050.64
454.83	4041.95
455.04	4058.34
455.25	4074.64
455.46	4107.32
455.68	4124.77
455.89	4094.79
456.10	4072.10
456.31	4100.93
456.52	4097.58
456.74	4160.24
456.95	4094.87
457.16	4129.03
457.37	4113.30
457.58	4139.27
457.80	4152.22
458.01	4109.21
458.22	4183.67
458.43	4179.25
458.64	4146.56
458.86	4178.51
459.07	4161.06
459.28	4171.96
459.49	4213.65
459.70	4225.21
459.91	4222.50
460.13	4181.13
460.34	4205.30
460.55	4213.25
460.76	4223.89
460.97	4258.71
461.19	4235.69
461.40	4273.70
461.61	4249.78
461.82	4283.37
462.03	4279.68
462.24	4276.81
462.46	4285.25
462.67	4289.10
462.88	4290.41
463.09	4326.46
463.30	4308.76
463.51	4333.42
463.72	4324.98
463.94	4349.07
464.15	4372.09
464.36	4364.71
464.57	4390.11
464.78	4407.15
464.99	4368.32
465.20	4384.05
465.42	4444.75
465.63	4460.97
465.84	4404.61
466.05	4464.08
466.26	4489.39
466.47	4475.06
466.68	4434.84
466.90	4503.89
467.11	4521.01
467.32	4543.79
467.53	4530.93
467.74	4529.21
467.95	4513.07
468.16	4558.37
468.37	4583.03
468.59	4561.24
468.80	4627.75
469.01	4609.65
469.22	4558.04
469.43	4653.31
469.64	4704.76
469.85	4732.77
470.06	4675.84
470.28	4718.27
470.49	4689.11
470.70	4691.49
470.91	4745.80
471.12	4727.20
471.33	4774.14
471.54	4775.78
471.75	4770.21
471.96	4864.01
472.17	4800.27
472.39	4896.12
472.60	4803.14
472.81	4905.38
473.02	4866.55
473.23	4912.18
473.44	4967.31
473.65	5001.39
473.86	4967.80
474.07	5000.65
474.28	5034.97
474.49	5026.62
474.71	5025.63
474.92	5067.90
475.13	5040.05
475.34	5092.81
475.55	5052.26
475.76	5157.52
475.97	5189.63
476.18	5179.07
476.39	5187.83
476.60	5220.93
476.81	5235.84
477.02	5279.25
477.23	5250.25
477.44	5282.69
477.65	5349.70
477.87	5403.11
478.08	5349.62
478.29	5425.31
478.50	5416.88
478.71	5426.87
478.92	5503.63
479.13	5459.39
479.34	5523.04
479.55	5509.86
479.76	5543.44
479.97	5546.72
480.18	5617.25
480.39	5596.36
480.60	5662.55
480.81	5718.42
481.02	5665.50
481.23	5705.80
481.44	5775.19
481.65	5843.43
481.86	5864.73
482.07	5820.00
482.28	5926.99
482.49	5898.48
482.71	5932.31
482.92	5963.44
483.13	5991.37
483.34	6049.78
483.55	6054.78
483.76	6052.24
483.97	6109.34
484.18	6141.28
484.39	6117.20
484.60	6159.23
484.81	6194.45
485.02	6212.88
485.23	6271.04
485.44	6314.05
485.65	6332.97
485.86	6356.08
486.07	6414.81
486.28	6410.47
486.49	6467.16
486.70	6515.24
486.91	6528.27
487.12	6539.41
487.33	6573.41
487.54	6634.52
487.75	6662.12
487.96	6705.87
488.17	6612.24
488.38	6729.54
488.59	6730.03
488.80	6793.36
489.01	6848.65
489.22	6977.92
489.43	6947.28
489.64	6863.32
489.85	6983.16
490.06	6944.74
490.26	7020.27
490.47	7041.08
490.68	7096.13
490.89	7220.65
491.10	7150.69
491.31	7211.47
491.52	7288.97
491.73	7247.84
491.94	7244.08
492.15	7354.42
492.36	7406.44
492.57	7374.90
492.78	7365.48
492.99	7483.85
493.20	7576.26
493.41	7571.01
493.62	7552.74
493.83	7583.22
494.04	7633.93
494.25	7719.78
494.46	7713.63
494.67	7682.26
494.88	7758.52
495.08	7792.52
495.29	7837.33
495.50	7938.42
495.71	7930.88
495.92	7984.13
496.13	7966.43
496.34	7960.86
496.55	8059.00
496.76	8078.75
496.97	8080.14
497.18	8179.67
497.39	8162.30
497.60	8317.95
497.81	8205.31
498.02	8345.64
498.22	8252.90
498.43	8399.05
498.64	8376.85
498.85	8478.34
499.06	8452.21
499.27	8578.20
499.48	8448.03
499.69	8578.61
499.90	8642.67
500.11	8650.29
500.32	8775.87
500.52	8703.87
500.73	8844.28
500.94	8930.95
501.15	8888.02
501.36	8880.07
501.57	8916.20
501.78	9004.59
501.99	9011.88
502.20	9074.39
502.41	9101.75
502.61	9148.19
502.82	9248.14
503.03	9169.41
503.24	9339.97
503.45	9256.82
503.66	9306.38
503.87	9421.80
504.08	9470.14
504.28	9520.02
504.49	9551.15
504.70	9569.34
504.91	9626.44
505.12	9657.32
505.33	9796.50
505.54	9720.72
505.75	9766.84
505.95	9852.12
506.16	9824.84
506.37	9846.22
506.58	9951.57
506.79	9996.79
507.00	10066.83
507.21	9999.17
507.41	10081.17
507.62	10121.55
507.83	10254.83
508.04	10167.76
508.25	10248.85
508.46	10234.36
508.67	10351.74
508.87	10371.90
509.08	10459.30
509.29	10404.09
509.50	10492.89
509.71	10519.68
509.92	10607.58
510.12	10589.88
510.33	10643.95
510.54	10637.56
510.75	10718.50
510.96	10843.67
511.17	10898.14
511.37	10912.15
511.58	10969.82
511.79	10979.32
512.00	11000.05
512.21	11126.70
512.42	11182.81
512.62	11188.71
512.83	11270.71
513.04	11239.58
513.25	11458.47
513.46	11292.01
513.66	11451.42
513.87	11431.02
514.08	11629.10
514.29	11568.65
514.50	11588.55
514.71	11708.81
514.91	11701.19
515.12	11781.39
515.33	11851.68
515.54	11871.34
515.75	12042.79
515.95	11955.39
516.16	11996.02
516.37	12122.58
516.58	12173.04
516.78	12190.90
516.99	12264.38
517.20	12283.63
517.41	12328.12
517.62	12306.41
517.82	12366.04
518.03	12504.08
518.24	12702.32
518.45	12531.36
518.66	12721.08
518.86	12678.97
519.07	12775.15
519.28	12703.55
519.49	12948.41
519.69	12906.63
519.90	12993.30
520.11	13065.63
520.32	13025.82
520.52	13171.55
520.73	13076.36
520.94	13275.92
521.15	13319.58
521.36	13224.06
521.56	13530.11
521.77	13360.46
521.98	13482.93
522.19	13445.08
522.39	13632.59
522.60	13599.17
522.81	13645.12
523.02	13660.28
523.22	13821.74
523.43	13862.70
523.64	13879.49
523.84	14006.80
524.05	14130.25
524.26	14094.69
524.47	14048.16
524.67	14183.99
524.88	14334.39
525.09	14371.33
525.30	14325.87
525.50	14388.29
525.71	14485.61
525.92	14519.20
526.13	14651.74
526.33	14595.05
526.54	14624.46
526.75	14741.61
526.95	14885.29
527.16	14714.33
527.37	15052.57
527.58	15062.07
527.78	15037.42
527.99	15183.15
528.20	15243.93
528.40	15228.45
528.61	15225.58
528.82	15355.26
529.03	15381.15
529.23	15494.44
529.44	15578.98
529.65	15588.89
529.85	15695.63
530.06	15709.39
530.27	15714.72
530.47	15674.17
530.68	16046.90
530.89	15852.59
531.09	16175.27
531.30	16116.78
531.51	16083.52
531.72	16303.88
531.92	16287.74
532.13	16409.47
532.34	16463.87
532.54	16497.62
532.75	16527.11
532.96	16615.58
533.16	16693.08
533.37	16887.80
533.58	16757.14
533.78	16974.55
533.99	17069.66
534.20	16964.39
534.40	17125.61
534.61	17217.85
534.82	17262.08
535.02	17356.78
535.23	17412.32
535.44	17537.90
535.64	17502.35
535.85	17643.41
536.06	17675.36
536.26	17691.66
536.47	17818.88
536.68	18020.57
536.88	17854.60
537.09	18137.47
537.29	17997.22
537.50	18303.43
537.71	18119.61
537.91	18396.90
538.12	18419.43
538.33	18419.27
538.53	18499.55
538.74	18613.91
538.95	18621.93
539.15	18672.48
539.36	18822.47
539.56	19012.69
539.77	18919.95
539.98	19023.09
540.18	19100.26
540.39	19054.55
540.60	19240.42
540.80	19319.80
541.01	19460.95
541.21	19443.25
541.42	19618.64
541.63	19615.53
541.83	19748.89
542.04	19798.37
542.25	19918.38
542.45	19916.66
542.66	20040.44
542.86	20140.38
543.07	19956.64
543.28	20264.57
543.48	20186.75
543.69	20425.05
543.89	20374.34
544.10	20719.22
544.31	20616.90
544.51	20601.50
544.72	20809.74
544.92	20724.71
545.13	20945.56
545.33	21001.02
545.54	21008.31
545.75	21201.23
545.95	21071.30
546.16	21173.13
546.36	21531.28
546.57	21175.18
546.78	20840.87
546.98	21113.74
547.19	20908.04
547.39	21478.93
547.60	21762.21
547.80	21980.77
548.01	22034.18
548.22	21943.90
548.42	22094.80
548.63	22260.11
548.83	22180.98
549.04	22443.69
549.24	22325.56
549.45	22422.64
549.65	22645.62
549.86	22423.37
550.07	22647.26
550.27	22844.27
550.48	22894.00
550.68	22929.39
550.89	22915.38
551.09	23149.91
551.30	23078.97
551.50	23358.56
551.71	23211.43
551.91	23279.59
552.12	23484.63
552.33	23656.74
552.53	23525.75
552.74	23748.08
552.94	23972.05
553.15	23820.66
553.35	23963.69
553.56	23925.27
553.76	24160.22
553.97	24062.81
554.17	24210.19
554.38	24572.18
554.58	24303.49
554.79	24537.21
554.99	24391.88
555.20	24513.86
555.40	24756.99
555.61	24747.49
555.81	24663.44
556.02	25026.01
556.22	25117.19
556.43	25038.71
556.63	25187.31
556.84	25128.74
557.04	25484.19
557.25	25306.34
557.45	25470.10
557.66	25441.34
557.86	25500.32
558.07	25888.05
558.27	25621.97
558.48	25808.34
558.68	25833.57
558.89	25988.64
559.09	26049.34
559.30	26012.15
559.50	26116.93
559.71	26031.65
559.91	26485.23
560.12	26260.61
560.32	26438.95
560.53	26556.26
560.73	26567.64
560.94	26713.62
561.14	26556.67
561.35	26878.44
561.55	26793.98
561.76	26996.41
561.96	26775.06
562.17	27118.30
562.37	27257.81
562.57	27189.16
562.78	27153.85
562.98	27385.44
563.19	27506.43
563.39	27495.05
563.60	27743.10
563.80	27528.47
564.01	27972.80
564.21	27842.05
564.42	27820.51
564.62	27986.56
564.82	28263.12
565.03	28003.19
565.23	28050.95
565.44	28334.63
565.64	28308.74
565.85	28424.50
566.05	28470.45
566.25	28733.33
566.46	28473.48
566.66	28850.55
566.87	28864.32
567.07	28803.86
567.28	28939.60
567.48	29145.87
567.68	28847.44
567.89	29364.02
568.09	29186.83
568.30	29197.07
568.50	29521.72
568.71	29461.91
568.91	29618.79
569.11	29491.24
569.32	29611.66
569.52	29876.59
569.73	29559.89
569.93	29949.90
570.13	29909.35
570.34	29939.17
570.54	30185.58
570.75	30079.17
570.95	30174.28
571.15	30166.91
571.36	30467.96
571.56	30405.37
571.77	30545.45
571.97	30233.34
572.17	30786.87
572.38	30688.32
572.58	30911.22
572.79	30899.42
572.99	31118.07
573.19	31108.65
573.40	31101.11
573.60	31182.70
573.81	31273.14
574.01	31388.23
574.21	31491.70
574.42	31496.69
574.62	31397.98
574.82	31668.48
575.03	31611.54
575.23	31977.07
575.43	31743.19
575.64	31841.49
575.84	32095.93
576.05	31930.04
576.25	32228.07
576.45	32161.47
576.66	32431.22
576.86	32287.13
577.06	32595.88
577.27	32650.68
577.47	32701.31
577.67	32750.30
577.88	32526.66
578.08	32937.97
578.28	33095.67
578.49	33015.96
578.69	33144.98
578.89	32976.31
579.10	33261.88
579.30	33621.42
579.50	33426.62
579.71	33256.64
579.91	33711.86
580.11	33559.08
580.32	33751.75
580.52	33726.69
580.72	34102.37
580.93	33792.63
581.13	33934.68
581.33	34283.57
581.54	34053.87
581.74	34245.23
581.94	34477.47
582.15	34561.11
582.35	34570.86
582.55	34629.43
582.76	34439.63
582.96	34922.70
583.16	34779.34
583.37	35018.22
583.57	34936.54
583.77	35179.84
583.97	34814.90
584.18	35448.70
584.38	35319.76
584.58	35125.37
584.79	35532.91
584.99	35549.38
585.19	35475.41
585.40	35607.54
585.60	35867.55
585.80	35562.40
586.00	36037.29
586.21	35930.46
586.41	36066.29
586.61	36313.27
586.82	36264.53
587.02	36229.80
587.22	36514.22
587.42	36237.00
587.63	36784.80
587.83	36284.19
588.03	36682.32
588.23	36495.87
588.44	36873.27
588.64	36831.00
588.84	36955.84
589.05	37120.99
589.25	37362.16
589.45	37331.28
589.65	37380.26
589.86	37510.84
590.06	37603.82
590.26	37469.14
590.46	37861.37
590.67	37473.40
590.87	38126.22
591.07	38120.32
591.27	37847.12
591.48	38266.05
591.68	38003.50
591.88	38539.17
592.08	38178.15
592.29	38610.76
592.49	38529.50
592.69	38745.85
592.89	38670.81
593.10	38808.11
593.30	38795.82
593.50	39373.43
593.70	38725.94
593.90	39285.53
594.11	39385.80
594.31	39361.39
594.51	39634.99
594.71	39768.52
594.92	39826.36
595.12	39707.98
595.32	39829.31
595.52	40071.95
595.72	39660.47
595.93	40138.47
596.13	40154.11
596.33	39941.62
596.53	40521.19
596.73	40480.07
596.94	40491.46
597.14	40627.11
597.34	40623.59
597.54	41005.66
597.74	40751.14
597.95	40902.28
598.15	41055.96
598.35	41309.82
598.55	41359.88
598.75	41305.65
598.96	41889.48
599.16	41487.59
599.36	41668.79
599.56	41620.54
599.76	41649.29
599.97	42179.64
600.17	42040.37
600.37	42167.68
600.57	41725.40
600.77	42576.78
600.97	42247.14
601.18	42700.39
601.38	42467.01
601.58	42804.59
601.78	42564.49
601.98	42642.56
602.18	43008.16
602.39	43234.91
602.59	43113.84
602.79	43016.85
602.99	43304.05
603.19	43390.56
603.39	43436.11
603.60	43526.14
603.80	43530.39
604.00	43721.43
604.20	43822.44
604.40	43976.28
604.60	43966.86
604.80	43940.40
605.01	44225.39
605.21	44237.27
605.41	44218.27
605.61	44002.17
605.81	44481.23
606.01	44736.24
606.21	44543.73
606.42	44779.49
606.62	44609.10
606.82	45149.52
607.02	44845.03
607.22	45096.27
607.42	45431.48
607.62	44929.98
607.82	45311.06
608.03	45397.49
608.23	45407.48
608.43	45201.37
608.63	45834.11
608.83	45757.93
609.03	45825.35
609.23	46060.95
609.43	46054.15
609.63	45975.34
609.84	45927.26
610.04	46449.49
610.24	46375.52
610.44	46432.61
610.64	46292.86
610.84	46583.18
611.04	46877.35
611.24	46742.92
611.44	46386.33
611.64	46858.92
611.85	46834.26
612.05	46988.02
612.25	47080.34
612.45	46902.83
612.65	47204.94
612.85	47421.54
613.05	47298.41
613.25	47640.67
613.45	47603.89
613.65	47729.88
613.85	47518.94
614.05	47794.27
614.25	48084.01
614.46	47935.08
614.66	48028.88
614.86	47949.75
615.06	48011.92
615.26	48454.86
615.46	47873.89
615.66	48524.57
615.86	48646.55
616.06	48189.44
616.26	48400.30
616.46	48984.87
616.66	48642.62
616.86	49072.03
617.06	48885.01
617.26	49383.82
617.46	49200.65
617.66	48879.20
617.86	49066.55
618.07	49232.43
618.27	49381.93
618.47	49345.89
618.67	49551.10
618.87	49763.51
619.07	49721.90
619.27	49498.34
619.47	49780.88
619.67	50099.54
619.87	49791.04
620.07	50061.37
620.27	50147.71
620.47	49824.79
620.67	50138.29
620.87	50278.62
621.07	50530.93
621.27	50396.91
621.47	50268.38
621.67	50596.13
621.87	50404.44
622.07	51004.33
622.27	50832.30
622.47	50724.75
622.67	50835.25
622.87	50708.69
623.07	51164.65
623.27	51435.96
623.47	50808.47
623.67	51060.94
623.87	51490.69
624.07	51424.66
624.27	51042.67
624.47	51556.38
624.67	51387.14
624.87	51646.17
625.07	51366.25
625.27	51941.07
625.47	51596.69
625.67	51595.95
625.87	51944.43
626.07	51903.56
626.27	52250.40
626.47	52101.14
626.67	52101.39
626.87	51934.36
627.07	52463.39
627.27	52182.49
627.47	52666.06
627.67	52421.69
627.87	52490.42
628.07	52595.11
628.27	52555.79
628.47	52489.93
628.67	52986.77
628.86	52986.52
629.06	52811.71
629.26	52770.01
629.46	53154.05
629.66	53133.48
629.86	52651.80
630.06	53215.08
630.26	53244.48
630.46	53589.94
630.66	53340.00
630.86	53356.06
631.06	53508.43
631.26	53248.33
631.46	54014.27
631.66	53775.56
631.86	53493.60
632.06	53947.18
632.26	53760.57
632.45	53793.26
632.65	53970.28
632.85	54105.86
633.05	53997.97
633.25	54343.10
633.45	53986.09
633.65	54232.51
633.85	54708.37
634.05	53858.63
634.25	54345.80
634.45	54397.24
634.65	54814.38
634.84	54416.17
635.04	54592.54
635.24	54231.20
635.44	54743.76
635.64	54474.90
635.84	54718.20
636.04	54695.92
636.24	54771.37
636.44	54880.40
636.64	54535.36
636.84	55133.12
637.03	54720.58
637.23	54998.04
637.43	55036.70
637.63	54827.15
637.83	55346.11
638.03	55342.75
638.23	55077.83
638.43	55217.17
638.62	55758.57
638.82	54852.96
639.02	55726.29
639.22	55307.36
639.42	55675.42
639.62	55318.01
639.82	55503.64
640.02	55613.66
640.21	55835.90
640.41	55206.68
640.61	55786.59
640.81	55665.27
641.01	55722.28
641.21	55594.32
641.41	56208.63
641.61	55660.19
641.80	55821.98
642.00	56328.56
642.20	56272.69
642.40	55696.23
642.60	56143.67
642.80	56300.95
642.99	55963.29
643.19	56360.67
643.39	55895.54
643.59	56344.86
643.79	56372.39
643.99	56645.67
644.19	56564.57
644.38	56239.02
644.58	56612.41
644.78	56420.47
644.98	56319.39
645.18	56512.39
645.38	56950.41
645.57	56478.80
645.77	56620.19
645.97	56379.60
646.17	56848.75
646.37	56752.98
646.56	56575.14
646.76	56856.12
646.96	56869.88
647.16	56726.36
647.36	57137.18
647.55	56847.60
647.75	56849.40
647.95	56811.31
648.15	57096.30
648.35	57063.86
648.55	57243.02
648.74	57092.13
648.94	57066.73
649.14	57545.71
649.34	57208.37
649.54	57038.31
649.73	57093.35
649.93	57220.74
650.13	57325.43
650.33	57199.11
650.52	57545.14
650.72	57654.17
650.92	57489.84
651.12	57102.94
651.32	57528.34
651.51	57671.46
651.71	57882.56
651.91	57469.94
652.11	57460.60
652.30	57234.34
652.50	57805.64
652.70	57747.15
652.90	57560.05
653.10	57875.35
653.29	57674.16
653.49	57811.62
653.69	57629.92
653.89	57682.68
654.08	57648.68
654.28	58141.42
654.48	57994.13
654.68	57993.15
654.87	58111.52
655.07	57652.53
655.27	58296.74
655.47	57903.29
655.66	57877.89
655.86	57923.19
656.06	58416.51
656.26	57706.43
656.45	58105.79
656.65	58182.05
656.85	58059.91
657.04	57963.91
657.24	58006.18
657.44	58031.98
657.64	58486.79
657.83	57675.31
658.03	58371.86
658.23	58292.24
658.43	58165.67
658.62	58326.48
658.82	58187.22
659.02	58047.38
659.21	58285.76
659.41	58139.70
659.61	58598.78
659.81	58256.85
660.00	58010.52
660.20	58394.96
660.40	58137.65
660.59	58272.98
660.79	58100.79
660.99	58561.09
661.19	58552.82
661.38	58496.70
661.58	57978.73
661.78	58430.60
661.97	58093.42
662.17	58918.50
662.37	58225.14
662.56	58387.02
662.76	58352.69
662.96	58543.23
663.15	58750.49
663.35	58566.66
663.55	58413.88
663.74	58261.76
663.94	58665.54
664.14	58121.27
664.33	58641.46
664.53	58408.89
664.73	58950.13
664.93	58177.71
665.12	58891.64
665.32	58636.38
665.52	58679.38
665.71	58628.51
665.91	58820.69
666.10	58549.30
666.30	59035.98
666.50	58521.94
666.69	58484.09
666.89	59001.00
667.09	59172.29
667.28	58753.03
667.48	58809.88
667.68	58867.63
667.87	58849.04
668.07	58692.65
668.27	59062.19
668.46	59130.76
668.66	58897.86
668.86	59554.85
669.05	59093.24
669.25	59346.78
669.44	59020.74
669.64	59028.85
669.84	59184.33
670.03	59432.87
670.23	59202.84
670.43	59317.20
670.62	59268.05
670.82	59126.74
671.01	59526.42
671.21	59120.84
671.41	59277.80
671.60	59574.18
671.80	59757.68
672.00	59380.69
672.19	59756.29
672.39	59594.66
672.58	59558.45
672.78	59501.77
672.98	60045.21
673.17	59979.93
673.37	59160.41
673.56	59590.65
673.76	59816.25
673.96	60005.48
674.15	59865.16
674.35	59962.31
674.54	59843.45
674.74	60014.00
674.94	59898.50
675.13	60074.38
675.33	59791.18
675.52	60339.63
675.72	60116.07
675.91	60129.26
676.11	60495.85
676.31	60017.94
676.50	60058.32
676.70	60174.40
676.89	60421.14
677.09	60605.38
677.28	60700.16
677.48	60002.29
677.68	60511.99
677.87	60319.64
678.07	60423.93
678.26	60555.16
678.46	60631.43
678.65	60422.04
678.85	60865.80
679.04	60287.53
679.24	60776.09
679.44	60336.35
679.63	60999.81
679.83	60789.20
680.02	60830.65
680.22	60640.27
680.41	60862.60
680.61	60901.18
680.80	60841.22
681.00	61020.79
681.19	60902.82
681.39	61042.90
681.59	61066.00
681.78	60858.67
681.98	61304.72
682.17	60770.36
682.37	61334.29
682.56	60812.47
682.76	61378.11
682.95	61077.88
683.15	61246.06
683.34	61085.83
683.54	61281.61
683.73	61350.51
683.93	61032.99
684.12	61369.76
684.32	61598.64
684.51	60984.50
684.71	61531.47
684.90	61512.87
685.10	61375.25
685.29	61555.31
685.49	61644.51
685.68	61661.72
685.88	61713.98
686.07	61437.18
686.27	61957.77
686.46	61862.99
686.66	61586.52
686.85	61997.83
687.05	61794.02
687.24	61664.01
687.44	62243.26
687.63	61944.17
687.83	61681.13
688.02	61968.99
688.22	62211.80
688.41	61932.05
688.61	62048.13
688.80	62224.50
689.00	61810.81
689.19	61807.29
689.39	62345.90
689.58	62292.57
689.77	62286.51
689.97	62378.92
690.16	62249.32
690.36	61957.69
690.55	61918.45
690.75	62737.56
690.94	62280.94
691.14	62542.75
691.33	62043.13
691.53	62338.53
691.72	62254.65
691.91	62469.03
692.11	62398.58
692.30	62656.54
692.50	62582.73
692.69	62203.77
692.89	62467.96
693.08	62285.20
693.28	62441.26
693.47	62605.42
693.66	62464.36
693.86	62547.83
694.05	62361.96
694.25	62509.17
694.44	62502.37
694.64	62339.84
694.83	62509.66
695.02	62470.58
695.22	62737.47
695.41	62470.99
695.61	62438.06
695.80	62447.89
695.99	62564.22
696.19	62498.68
696.38	62528.17
696.58	62201.07
696.77	62959.31
696.96	62759.27
697.16	62541.03
697.35	62582.32
697.55	62583.06
697.74	62282.17
697.93	63032.46
698.13	62388.58
698.32	62819.56
698.52	62509.49
698.71	62271.11
698.90	63006.33
699.10	62627.38
699.29	62537.43
699.49	63019.93
699.68	62498.27
699.87	62551.11
700.07	62786.87
700.26	62577.41
700.45	62630.16
700.65	62243.34
700.84	62967.91
701.04	62420.37
701.23	62826.68
701.42	62779.09
701.62	62625.25
701.81	62769.01
702.00	62555.29
702.20	62297.00
702.39	62536.28
702.58	62754.35
702.78	62438.80
702.97	62434.21
703.17	62541.53
703.36	62542.75
703.55	62355.65
703.75	62404.88
703.94	62516.13
704.13	62186.90
704.33	62281.11
704.52	62717.98
704.71	62459.03
704.91	62508.35
705.10	62137.91
705.29	62430.69
705.49	62531.94
705.68	62357.95
705.87	62393.01
706.07	62070.66
706.26	62525.31
706.45	62063.53
706.65	61831.04
706.84	62520.55
707.03	62802.76
707.23	62025.93
707.42	61969.40
707.61	62427.90
707.80	62108.58
708.00	62146.35
708.19	62172.64
708.38	62628.03
708.58	61955.56
708.77	62581.01
708.96	61945.81
709.16	61807.53
709.35	62704.13
709.54	62196.48
709.74	61988.25
709.93	61735.28
710.12	62482.87
710.31	62759.18
710.51	62213.11
710.70	62291.18
710.89	62369.58
711.09	61737.08
711.28	61744.78
711.47	62165.27
711.66	62073.77
711.86	61969.73
712.05	62095.64
712.24	62434.70
712.43	62055.91
712.63	61661.64
712.82	62174.61
713.01	62090.23
713.21	61693.17
713.40	61806.80
713.59	62205.08
713.78	61563.91
713.98	62176.17
714.17	61856.77
714.36	62000.21
714.55	61452.58
714.75	61653.28
714.94	61679.41
715.13	62073.28
715.32	61121.30
715.52	61713.65
715.71	61417.27
715.90	61625.02
716.09	61464.95
716.29	62012.00
716.48	61775.58
716.67	61003.75
716.86	61491.33
717.06	61586.60
717.25	61655.74
717.44	61666.06
717.63	61848.33
717.82	61066.50
718.02	61409.74
718.21	61345.27
718.40	61537.53
718.59	61566.20
718.79	61223.04
718.98	61126.95
719.17	61437.75
719.36	61610.35
719.55	61213.62
719.75	61126.62
719.94	61132.85
720.13	61488.30
720.32	61308.48
720.51	61148.91
720.71	61071.41
720.90	60597.43
721.09	61123.84
721.28	60765.28
721.47	61255.32
721.67	61013.82
721.86	61099.18
722.05	61079.52
722.24	60584.24
722.43	61107.86
722.63	60642.65
722.82	60794.03
723.01	60969.83
723.20	60595.63
723.39	60632.33
723.58	61086.98
723.78	60345.94
723.97	61040.61
724.16	60337.99
724.35	60603.25
724.54	60371.50
724.73	60515.67
724.93	60232.32
725.12	60592.19
725.31	59843.45
725.50	60459.23
725.69	60796.41
725.88	60146.63
726.08	59822.15
726.27	60507.81
726.46	59873.43
726.65	60553.52
726.84	59856.15
727.03	60118.78
727.23	60394.68
727.42	59842.96
727.61	60147.86
727.80	59639.80
727.99	59939.29
728.18	60026.13
728.37	59845.66
728.56	59739.00
728.76	59471.87
728.95	59843.53
729.14	59905.05
729.33	59755.47
729.52	59832.80
729.71	59763.82
729.90	59833.70
730.09	59520.77
730.29	59829.60
730.48	59318.10
730.67	59880.23
730.86	59372.25
731.05	59776.36
731.24	59488.33
731.43	59675.93
731.62	59246.51
731.81	59281.08
732.01	59925.78
732.20	59109.78
732.39	59665.52
732.58	59461.30
732.77	58756.47
732.96	59383.72
733.15	59624.73
733.34	59058.26
733.53	59346.20
733.72	59314.99
733.92	59285.25
734.11	58974.21
734.30	59215.71
734.49	59555.34
734.68	59120.60
734.87	59078.49
735.06	59098.23
735.25	59204.65
735.44	58866.65
735.63	59095.29
735.82	59104.87
736.01	58749.34
736.20	58692.00
736.40	59208.01
736.59	58895.24
736.78	59216.77
736.97	58562.16
737.16	58531.93
737.35	58755.49
737.54	58911.87
737.73	58570.60
737.92	58688.64
738.11	58841.66
738.30	58640.47
738.49	58625.32
738.68	58371.94
738.87	58713.22
739.06	58169.11
739.25	58444.11
739.44	58473.11
739.63	58181.81
739.82	58070.24
740.01	58442.64
740.20	58082.85
740.39	58214.49
740.59	58252.67
740.78	58431.09
740.97	58154.45
741.16	57955.88
741.35	58220.07
741.54	58165.18
741.73	58142.24
741.92	57823.33
742.11	57943.26
742.30	57968.08
742.49	57492.30
742.68	57940.89
742.87	57848.07
743.06	57330.67
743.25	57771.31
743.44	57531.13
743.63	57893.21
743.82	57429.22
744.01	57380.32
744.20	57254.65
744.39	57567.09
744.58	57579.46
744.77	57346.32
744.96	56936.89
745.15	57461.66
745.34	57077.30
745.53	57425.70
745.72	56832.85
745.91	57042.07
746.10	56601.02
746.29	57219.18
746.48	57173.39
746.67	57105.31
746.86	56976.70
747.04	57084.34
747.23	56738.16
747.42	57193.71
747.61	56582.67
747.80	57499.84
747.99	56559.00
748.18	57057.47
748.37	56789.76
748.56	56433.58
748.75	56656.07
748.94	56635.43
749.13	56754.54
749.32	56429.40
749.51	56717.59
749.70	56671.31
749.89	56312.75
750.08	56702.52
750.27	56097.71
750.46	56384.35
750.65	56716.36
750.84	56131.06
751.02	56398.77
751.21	56059.87
751.40	56365.83
751.59	56340.69
751.78	56251.80
751.97	56214.45
752.16	55931.66
752.35	56221.17
752.54	55825.83
752.73	56268.27
752.92	55808.30
753.11	55832.38
753.30	55968.53
753.49	56172.75
753.67	55988.60
753.86	55562.87
754.05	56057.98
754.24	55738.83
754.43	55854.66
754.62	55849.09
754.81	55443.84
755.00	55773.64
755.19	55605.46
755.38	55150.00
755.56	55644.95
755.75	55879.16
755.94	55266.40
756.13	55360.20
756.32	55552.14
756.51	55297.29
756.70	55517.65
756.89	55315.88
757.08	55328.58
757.26	55228.80
757.45	55339.64
757.64	54830.60
757.83	55411.24
758.02	54985.67
758.21	54902.19
758.40	55188.58
758.59	55130.17
758.77	54874.09
758.96	54999.68
759.15	55095.85
759.34	54542.81
759.53	54877.62
759.72	54795.04
759.91	54392.49
760.09	54749.00
760.28	54919.64
760.47	54299.19
760.66	54859.10
760.85	54306.89
761.04	54924.39
761.23	54595.57
761.41	54622.44
761.60	54753.51
761.79	54396.75
761.98	54137.40
762.17	54589.59
762.36	54126.50
762.54	54613.76
762.73	54288.05
762.92	54013.70
763.11	54313.61
763.30	54469.99
763.49	54113.56
763.67	54194.82
763.86	54193.19
764.05	54345.14
764.24	54120.77
764.43	54635.46
764.61	53896.07
764.80	54027.87
764.99	54486.95
765.18	53913.19
765.37	54182.29
765.55	54200.56
765.74	53959.72
765.93	53672.26
766.12	54108.56
766.31	53975.04
766.49	53965.04
766.68	54072.19
766.87	53884.27
767.06	53853.14
767.25	53872.88
767.43	54004.36
767.62	53681.77
767.81	53917.28
768.00	53767.13
768.19	53449.94
768.37	53610.42
768.56	53693.56
768.75	53786.87
768.94	53867.64
769.12	53390.95
769.31	53527.92
769.50	53530.71
769.69	53800.63
769.88	53021.58
770.06	53942.02
770.25	53373.10
770.44	53204.02
770.63	53620.41
770.81	53422.66
771.00	53042.72
771.19	53514.24
771.38	53331.97
771.56	53533.25
771.75	52686.54
771.94	53388.58
772.13	53106.78
772.31	52944.09
772.50	53305.02
772.69	53115.63
772.88	53506.79
773.06	52782.38
773.25	53122.67
773.44	53248.09
773.62	52935.81
773.81	53128.00
774.00	52676.95
774.19	52850.13
774.37	52730.85
774.56	53047.39
774.75	52437.17
774.94	52912.55
775.12	52531.79
775.31	52875.44
775.50	52827.35
775.68	52704.72
775.87	52722.91
776.06	52524.91
776.25	52895.76
776.43	52428.49
776.62	53004.22
776.81	52311.18
776.99	52753.30
777.18	52545.64
777.37	52029.71
777.55	52380.16
777.74	52579.96
777.93	52457.08
778.12	52472.73
778.30	52275.14
778.49	52205.67
778.68	52402.61
778.86	52240.82
779.05	52457.00
779.24	52461.10
779.42	52275.96
779.61	52031.68
779.80	52212.31
779.98	52183.06
780.17	52482.56
780.36	51900.28
780.54	52341.49
780.73	51461.44
780.92	52174.38
781.10	51982.94
781.29	51760.36
781.48	51658.95
781.66	51848.75
781.85	52001.45
782.04	51678.69
782.22	51949.92
782.41	51555.32
782.60	51931.82
782.78	51726.94
782.97	52014.56
783.16	51229.69
783.34	51470.21
783.53	51622.98
783.71	51359.45
783.90	51513.70
784.09	51385.01
784.27	51484.13
784.46	51374.93
784.65	51462.01
784.83	51285.64
785.02	51216.26
785.20	51775.03
785.39	50851.15
785.58	51587.35
785.76	51370.10
785.95	51286.79
786.14	51420.97
786.32	51460.95
786.51	51295.88
786.69	51546.55
786.88	51474.14
787.07	51378.46
787.25	51510.26
787.44	51499.53
787.62	51405.49
787.81	51635.85
788.00	51634.62
788.18	51199.79
788.37	51341.59
788.55	51916.01
788.74	51400.74
788.93	51651.98
789.11	51964.91
789.30	51698.35
789.48	51441.86
789.67	51674.84
789.86	51629.21
790.04	51736.28
790.23	51628.72
790.41	51506.50
790.60	51933.46
790.78	52008.99
790.97	51474.38
791.16	51899.79
791.34	52581.76
791.53	51692.53
791.71	52542.36
791.90	52073.54
792.08	52171.18
792.27	52350.91
792.46	52211.57
792.64	52506.89
792.83	52337.15
793.01	52599.95
793.20	52550.14
793.38	52628.13
793.57	52620.92
793.75	52642.71
793.94	53026.01
794.12	53275.53
794.31	52769.19
794.50	53141.51
794.68	53309.69
794.87	53078.11
795.05	53632.70
795.24	53152.90
795.42	53031.91
795.61	53799.73
795.79	53916.79
795.98	53162.81
796.16	53803.33
796.35	53885.09
796.53	53570.03
796.72	54051.30
796.90	54027.38
797.09	54034.67
797.27	53978.23
797.46	53874.52
797.64	54109.46
797.83	53877.80
798.01	53931.78
798.20	54172.95
798.38	53897.79
798.57	54312.79
798.75	54119.38
798.94	53436.67
799.12	54868.52
799.31	54189.42
799.49	54322.29
799.68	53970.45
799.86	54088.74
800.05	54148.29
800.23	54119.95
800.42	54010.92
800.60	54521.93
800.79	53878.54
800.97	54305.00
801.16	54714.84
801.34	54027.22
801.53	54145.18
801.71	54402.49
801.90	54002.31
802.08	54700.67
802.27	54236.85
802.45	54098.65
802.64	54300.58
802.82	54667.33
803.00	53927.52
803.19	54202.85
803.37	54639.56
803.56	54164.27
803.74	54136.91
803.93	54487.36
804.11	54150.42
804.30	54073.17
804.48	54300.01
804.67	54488.34
804.85	54126.42
805.03	54679.95
805.22	53958.49
805.40	53732.56
805.59	54335.48
805.77	54250.94
805.96	53982.33
806.14	53999.78
806.32	54135.84
806.51	54598.85
806.69	53971.19
806.88	53946.53
807.06	53899.18
807.25	53941.45
807.43	53928.67
807.61	53989.54
807.80	53709.62
807.98	53950.87
808.17	53550.20
808.35	53455.26
808.53	54009.93
808.72	53625.90
808.90	53687.75
809.09	53681.68
809.27	53865.51
809.45	53389.07
809.64	53800.55
809.82	53553.73
810.01	53526.12
810.19	53682.01
810.37	53488.93
810.56	53425.44
810.74	53656.21
810.93	53230.23
811.11	53465.01
811.29	53263.00
811.48	53492.94
811.66	53359.33
811.84	53113.99
812.03	53060.33
812.21	53107.02
812.40	53328.37
812.58	53428.97
812.76	52953.43
812.95	53409.88
813.13	52705.13
813.31	52973.82
813.50	53119.56
813.68	52871.26
813.86	53176.41
814.05	53234.33
814.23	52525.24
814.42	52912.22
814.60	52550.14
814.78	52775.42
814.97	52701.94
815.15	52471.17
815.33	52729.62
815.52	52467.57
815.70	52577.09
815.88	52628.46
816.07	52156.77
816.25	52348.87
816.43	52564.72
816.62	51912.73
816.80	52199.69
816.98	52080.25
817.17	52060.51
817.35	52100.90
817.53	52017.42
817.72	52264.98
817.90	51651.00
818.08	51855.96
818.26	52099.34
818.45	51637.40
818.63	51943.37
818.81	52093.28
819.00	51467.99
819.18	51928.95
819.36	51925.76
819.55	51864.48
819.73	51603.49
819.91	51822.70
820.09	51586.20
820.28	51840.48
820.46	51411.22
820.64	52058.46
820.83	51375.43
821.01	51490.36
821.19	51286.22
821.38	51484.62
821.56	51257.46
821.74	51429.08
821.92	51111.24
822.11	51579.73
822.29	50884.65
822.47	50899.89
822.65	51063.15
822.84	51196.60
823.02	50494.72
823.20	51234.61
823.39	50578.85
823.57	50748.99
823.75	50798.72
823.93	50441.63
824.12	50755.46
824.30	50357.18
824.48	50399.61
824.66	50790.69
824.85	49798.33
825.03	50441.31
825.21	50579.18
825.39	50349.80
825.58	50447.12
825.76	50189.98
825.94	50298.28
826.12	50120.35
826.31	49755.48
826.49	50068.74
826.67	50056.45
826.85	49923.91
827.03	49976.17
827.22	50167.78
827.40	49748.68
827.58	49643.25
827.76	49874.35
827.95	49616.96
828.13	49739.67
828.31	49700.27
828.49	49836.99
828.67	49616.06
828.86	49317.38
829.04	49457.05
829.22	49399.30
829.40	49178.45
829.58	49098.41
829.77	49322.71
829.95	49398.73
830.13	49252.58
830.31	49232.02
830.49	49316.56
830.68	49429.77
830.86	49043.28
831.04	48938.59
831.22	49098.41
831.40	48942.77
831.59	49205.15
831.77	48685.95
831.95	49203.02
832.13	48604.93
832.31	48961.61
832.50	48836.35
832.68	48562.66
832.86	48658.92
833.04	48899.10
833.22	48268.66
833.40	49065.73
833.59	48464.93
833.77	48923.76
833.95	47775.92
834.13	49236.28
834.31	48566.10
834.49	48564.14
834.67	48529.90
834.86	48544.72
835.04	48415.29
835.22	48510.56
835.40	48186.98
835.58	48112.03
835.76	48116.04
835.95	48196.49
836.13	48080.16
836.31	47796.89
836.49	48212.30
836.67	48122.35
836.85	48033.30
837.03	47846.28
837.21	47954.01
837.40	47689.49
837.58	47247.46
837.76	47642.06
837.94	47644.35
838.12	47965.89
838.30	47571.36
838.48	47591.52
838.66	47445.62
838.85	47375.17
839.03	47372.22
839.21	47272.36
839.39	47111.06
839.57	47255.81
839.75	46984.17
839.93	47118.03
840.11	47175.62
840.29	47014.81
840.47	47149.57
840.66	47063.39
840.84	47020.87
841.02	46823.28
841.20	46867.11
841.38	46760.29
841.56	46762.50
841.74	47356.41
841.92	46747.67
842.10	46699.26
842.28	46917.41
842.46	46537.63
842.65	46548.28
842.83	46761.27
843.01	46999.65
843.19	46342.99
843.37	46624.38
843.55	46343.98
843.73	46540.99
843.91	46544.35
844.09	46277.62
844.27	46669.93
844.45	46133.45
844.63	46068.48
844.81	46144.34
844.99	46141.15
845.17	45926.60
845.35	46327.43
845.54	45929.22
845.72	45982.55
845.90	45889.08
846.08	46003.93
846.26	45479.08
846.44	45973.13
846.62	45453.19
846.80	45461.63
846.98	45536.50
847.16	45485.22
847.34	45549.86
847.52	45437.22
847.70	45230.54
847.88	45573.78
848.06	45315.98
848.24	45418.54
848.42	45387.90
848.60	45055.89
848.78	45364.31
848.96	45247.33
849.14	45157.55
849.32	45456.47
849.50	44890.08
849.68	45270.02
849.86	45220.87
850.04	44844.45
850.22	44885.74
850.40	44421.59
850.58	44894.01
850.76	45557.06
850.94	44235.47
851.12	44828.81
851.30	44449.52
851.48	44904.75
851.66	44514.24
851.84	44542.17
852.02	44376.37
852.20	44754.59
852.38	44339.10
852.56	44544.88
852.74	44530.54
852.92	44320.17
853.10	44133.81
853.28	44547.99
853.46	43664.09
853.64	44263.40
853.82	43925.82
854.00	44071.39
854.18	43820.39
854.36	43656.71
854.54	43975.71
854.72	43547.60
854.90	43480.34
855.07	43622.06
855.25	43582.74
855.43	43628.94
855.61	43486.57
855.79	43387.86
855.97	43549.48
856.15	43530.15
856.33	43217.30
856.51	43546.61
856.69	42988.42
856.87	43407.52
857.05	43086.64
857.23	43321.99
857.41	42828.19
857.59	42950.66
857.77	42874.39
857.94	42798.61
858.12	43124.49
858.30	42754.79
858.48	42779.77
858.66	42633.14
858.84	42906.67
859.02	42462.67
859.20	42365.02
859.38	42955.73
859.56	42681.14
859.74	42482.16
859.92	42551.38
860.09	42329.88
860.27	42577.93
860.45	42073.22
860.63	42175.79
860.81	42549.42
860.99	42273.76
861.17	41758.57
861.35	41044.08
861.53	40879.42
861.70	40858.45
861.88	41619.56
862.06	41607.68
862.24	40950.53
862.42	41001.65
862.60	41621.77
862.78	41630.62
862.96	41775.04
863.14	41419.84
863.31	41414.27
863.49	41287.95
863.67	41229.54
863.85	41158.27
864.03	41373.88
864.21	41285.99
864.39	41298.27
864.56	41003.86
864.74	41235.11
864.92	40962.98
865.10	40777.60
865.28	40889.91
865.46	41267.96
865.64	40357.76
865.81	40853.13
865.99	40123.64
866.17	40753.43
866.35	40378.49
866.53	40391.51
866.71	40459.51
866.88	40542.16
867.06	40063.27
867.24	40335.73
867.42	39967.67
867.60	40268.06
867.78	39960.54
867.95	40391.76
868.13	39838.81
868.31	40227.10
868.49	40108.81
868.67	39869.61
868.84	39710.20
869.02	39958.98
869.20	39213.19
869.38	39779.34
869.56	39420.86
869.73	39350.24
869.91	39649.08
870.09	39600.67
870.27	39194.03
870.45	39319.36
870.62	38977.11
870.80	39383.59
870.98	39093.35
871.16	39165.11
871.34	39030.93
871.51	39132.75
871.69	38754.45
871.87	38942.45
872.05	38797.87
872.23	38866.02
872.40	38466.59
872.58	38756.74
872.76	38406.13
872.94	38527.29
873.11	38551.70
873.29	38215.75
873.47	38343.14
873.65	38152.27
873.83	38223.94
874.00	38136.54
874.18	38259.09
874.36	38042.82
874.54	38235.58
874.71	37895.94
874.89	37705.64
875.07	38017.92
875.25	37792.48
875.42	37871.94
875.60	37849.33
875.78	38102.38
875.96	37699.17
876.13	37967.37
876.31	37449.40
876.49	37482.91
876.66	37238.30
876.84	37925.68
877.02	37497.57
877.20	37569.58
877.37	37641.17
877.55	37586.29
877.73	37411.15
877.91	37385.75
878.08	37622.17
878.26	37505.93
878.44	37496.10
878.61	37522.15
878.79	37271.72
878.97	37365.85
879.15	37679.43
879.32	37560.40
879.50	37482.91
879.68	37803.78
879.85	37376.82
880.03	37719.90
880.21	37304.73
880.38	37745.87
880.56	37273.52
880.74	37720.47
880.92	37157.77
881.09	37476.52
881.27	37408.44
881.45	37539.84
881.62	37341.35
881.80	37244.36
881.98	37204.55
882.15	37595.71
882.33	37344.22
882.51	37469.55
882.68	37222.49
882.86	37725.22
883.04	37152.28
883.21	37351.67
883.39	37684.51
883.57	37242.07
883.74	37501.83
883.92	37536.07
884.10	37478.81
884.27	37460.38
884.45	37222.98
884.63	37681.56
884.80	37479.22
884.98	37596.77
885.16	37392.22
885.33	37431.79
885.51	37549.26
885.69	37490.36
885.86	37511.01
886.04	37738.08
886.21	37207.41
886.39	37768.23
886.57	37148.02
886.74	37766.10
886.92	37725.47
887.10	37797.23
887.27	37733.50
887.45	37720.47
887.62	37599.64
887.80	37628.07
887.98	38034.06
888.15	37828.11
888.33	37556.96
888.51	37937.31
888.68	37729.48
888.86	37804.77
889.03	37686.88
889.21	37889.14
889.39	37897.09
889.56	37956.73
889.74	37785.11
889.91	37850.80
890.09	37790.76
890.27	37874.64
890.44	37842.45
890.62	37965.74
890.79	37904.46
890.97	38062.81
891.14	37828.11
891.32	37998.26
891.50	37824.51
891.67	38089.35
891.85	38012.76
892.02	37873.09
892.20	38328.31
892.38	38066.41
892.55	37989.00
892.73	38200.76
892.90	37840.15
893.08	38033.16
893.25	37884.88
893.43	38350.92
893.60	37849.08
893.78	38150.63
893.96	37877.26
894.13	38050.36
894.31	38269.49
894.48	37916.26
894.66	38031.76
894.83	37980.81
895.01	37987.04
895.18	38027.42
895.36	37855.23
895.53	38094.92
895.71	37842.61
895.89	37910.44
896.06	37710.07
896.24	37877.84
896.41	37781.34
896.59	37981.87
896.76	37440.80
896.94	37689.42
897.11	37818.12
897.29	37866.37
897.46	37515.10
897.64	37736.04
897.81	37531.08
897.99	37221.50
898.16	37800.18
898.34	37624.79
898.51	37547.21
898.69	37343.48
898.86	37481.27
899.04	37536.40
899.21	37184.48
899.39	37298.51
899.56	37134.75
899.74	37638.23
899.91	37228.47
900.09	37085.27
900.26	37256.98
900.44	36924.06
900.61	37078.15
900.79	37461.61
900.96	37096.33
901.14	37088.30
901.31	36902.27
901.49	36830.34
901.66	36978.04
901.84	36896.53
902.01	36670.52
902.19	36724.01
902.36	36408.62
902.54	36500.78
902.71	36468.10
902.88	36687.48
903.06	35993.05
903.23	36636.60
903.41	36202.27
903.58	36087.42
903.76	35866.40
903.93	36224.64
904.11	36225.95
904.28	35937.26
904.45	35922.93
904.63	35792.60
904.80	35534.80
904.98	35797.02
905.15	35420.19
905.33	35670.13
905.50	35447.72
905.68	35481.30
905.85	35186.31
906.02	35148.14
906.20	35405.78
906.37	34828.41
906.55	34673.42
906.72	35084.98
906.90	34769.76
907.07	34478.54
907.24	34642.37
907.42	34356.40
907.59	34322.97
907.77	34241.79
907.94	34134.48
908.11	34245.72
908.29	34072.22
908.46	33999.23
908.64	33839.24
908.81	33855.95
908.98	33558.18
909.16	33912.23
909.33	33535.24
909.51	33382.55
909.68	33315.04
909.85	33281.05
910.03	33267.70
910.20	32936.66
910.37	32948.95
910.55	32867.60
910.72	32755.70
910.90	32510.52
911.07	32549.19
911.24	32248.30
911.42	32545.75
911.59	32182.76
911.76	32248.38
911.94	32024.09
912.11	32073.98
912.29	31995.09
912.46	31833.95
912.63	31955.85
912.81	31542.98
912.98	31827.32
913.15	31455.90
913.33	31616.87
913.50	31570.34
913.67	31309.92
913.85	31130.27
914.02	31226.36
914.19	31058.02
914.37	30904.18
914.54	30948.49
914.71	30829.30
914.89	30840.03
915.06	30699.87
915.23	30566.02
915.41	30478.61
915.58	30361.30
915.75	30205.57
915.93	30189.19
916.10	30024.86
916.27	29946.46
916.45	30004.71
916.62	29721.19
916.79	29931.88
916.97	29695.96
917.14	29614.77
917.31	29445.78
917.49	29569.39
917.66	29494.35
917.83	29331.25
918.00	29202.81
918.18	29146.86
918.35	28995.96
918.52	29130.47
918.70	28802.06
918.87	28728.82
919.04	28764.95
919.21	28716.45
919.39	28338.40
919.56	28622.08
919.73	28218.31
919.91	28349.87
920.08	28227.32
920.25	27962.15
920.42	28292.52
920.60	27868.10
920.77	27779.22
920.94	27885.88
921.11	27505.37
921.29	27666.67
921.46	27298.44
921.63	27531.75
921.81	27161.06
921.98	27182.93
922.15	27095.20
922.32	27207.76
922.50	26926.12
922.67	26925.96
922.84	26804.31
923.01	26632.85
923.19	26525.13
923.36	26594.27
923.53	26104.64
923.70	26413.55
923.87	26210.64
924.05	26233.91
924.22	25973.16
924.39	26104.15
924.56	25734.69
924.74	25790.32
924.91	25767.54
925.08	25600.43
925.25	25561.19
925.43	25433.64
925.60	25150.37
925.77	25436.75
925.94	25147.34
926.11	25082.37
926.29	24962.85
926.46	24966.21
926.63	24979.57
926.80	24892.65
926.97	24671.72
927.15	24762.73
927.32	24470.44
927.49	24351.82
927.66	24448.41
927.83	24486.33
928.01	24199.45
928.18	24166.36
928.35	23939.28
928.52	24198.80
928.69	23707.86
928.87	23765.86
929.04	23675.75
929.21	23677.63
929.38	23461.69
929.55	23532.55
929.72	23231.09
929.90	23232.16
930.07	23190.62
930.24	23060.54
930.41	23009.42
930.58	22964.20
930.75	23028.92
930.93	22913.08
931.10	22859.10
931.27	22511.52
931.44	22644.39
931.61	22537.81
931.78	22629.56
931.95	22433.20
932.13	22227.34
932.30	22482.76
932.47	22035.24
932.64	22237.91
932.81	22084.23
932.98	22037.54
933.15	22011.98
933.33	21790.55
933.50	21914.82
933.67	21673.90
933.84	21715.51
934.01	21638.02
934.18	21559.79
934.35	21527.92
934.52	21420.11
934.70	21460.58
934.87	21309.77
935.04	21169.28
935.21	21139.62
935.38	21051.32
935.55	21014.21
935.72	21154.21
935.89	20838.49
936.06	20854.06
936.24	20645.49
936.41	20857.25
936.58	20593.64
936.75	20512.29
936.92	20562.43
937.09	20479.28
937.26	20268.01
937.43	20358.20
937.60	20309.79
937.77	20206.49
937.94	20143.41
938.12	20164.96
938.29	19934.11
938.46	20017.42
938.63	19732.34
938.80	19947.38
938.97	19745.70
939.14	19636.66
939.31	19585.71
939.48	19636.25
939.65	19402.13
939.82	19357.81
939.99	19330.86
940.16	19254.26
940.33	19177.10
940.50	19108.20
940.67	19098.95
940.85	19091.16
941.02	18955.83
941.19	18971.48
941.36	18846.80
941.53	18832.71
941.70	18788.56
941.87	18544.28
942.04	18619.56
942.21	18575.40
942.38	18553.37
942.55	18350.95
942.72	18415.91
942.89	18330.63
943.06	18185.06
943.23	18169.25
943.40	18014.34
943.57	18095.69
943.74	18014.10
943.91	17970.76
944.08	17921.04
944.25	18014.10
944.42	17704.28
944.59	17639.97
944.76	17745.89
944.93	17662.83
945.10	17578.04
945.27	17504.64
945.44	17320.16
945.61	17405.03
945.78	17235.70
945.95	17237.83
946.12	17109.96
946.29	17191.06
946.46	17175.99
946.63	17058.19
946.80	17073.75
946.97	16994.13
947.14	16816.53
947.31	17002.48
947.48	16828.08
947.65	16742.88
947.82	16746.49
947.99	16784.33
948.16	16541.44
948.33	16723.14
948.50	16438.47
948.67	16436.01
948.84	16352.62
949.01	16246.04
949.18	16275.04
949.35	16320.84
949.52	16102.69
949.68	16156.75
949.85	16092.45
950.02	16083.03
950.19	15928.69
950.36	15923.37
950.53	15883.55
950.70	15784.76
950.87	15740.20
951.04	15849.48
951.21	15602.65
951.38	15532.04
951.55	15547.11
951.72	15505.58
951.89	15445.37
952.06	15457.49
952.23	15405.31
952.39	15279.08
952.56	15130.15
952.73	15254.99
952.90	15085.58
953.07	15158.74
953.24	14947.22
953.41	14927.40
953.58	14780.27
953.75	14964.59
953.92	14787.65
954.09	14761.10
954.25	14624.87
954.42	14634.70
954.59	14546.31
954.76	14509.61
954.93	14462.51
955.10	14527.88
955.27	14386.00
955.44	14369.78
955.61	14285.65
955.77	14384.11
955.94	14244.69
956.11	14225.68
956.28	14187.84
956.45	14153.84
956.62	14128.85
956.79	14105.34
956.96	14057.50
957.12	14028.83
957.29	13963.87
957.46	13943.39
957.63	13802.33
957.80	13780.37
957.97	13725.08
958.14	13850.08
958.30	13568.69
958.47	13604.82
958.64	13538.55
958.81	13610.72
958.98	13472.60
959.15	13454.83
959.32	13532.90
959.48	13473.26
959.65	13258.96
959.82	13391.91
959.99	13260.84
960.16	13283.04
960.33	13251.34
960.49	13203.58
960.66	13070.46
960.83	13104.13
961.00	13072.84
961.17	13061.04
961.33	13003.05
961.50	12952.34
961.67	12812.67
961.84	12910.64
962.01	12742.13
962.18	12814.71
962.34	12671.44
962.51	12681.10
962.68	12539.14
962.85	12655.30
963.02	12492.28
963.18	12505.88
963.35	12384.72
963.52	12350.15
963.69	12344.91
963.86	12355.97
964.02	12150.52
964.19	12252.83
964.36	12190.57
964.53	12142.57
964.69	12006.34
964.86	12130.77
965.03	11932.29
965.20	12102.10
965.37	11895.42
965.53	11937.04
965.70	11805.47
965.87	11950.72
966.04	11791.55
966.20	11753.46
966.37	11686.53
966.54	11559.47
966.71	11715.12
966.87	11563.65
967.04	11571.11
967.21	11504.92
967.38	11456.26
967.54	11489.19
967.71	11435.45
967.88	11387.20
968.05	11350.09
968.21	11267.35
968.38	11214.27
968.55	11224.51
968.72	11192.80
968.88	11055.18
969.05	11175.27
969.22	11046.58
969.39	11068.62
969.55	11067.63
969.72	10919.77
969.89	10935.58
970.05	10997.67
970.22	10971.30
970.39	10854.56
970.56	10853.91
970.72	10850.47
970.89	10844.90
971.06	10746.84
971.22	10726.93
971.39	10711.37
971.56	10769.28
971.73	10576.37
971.89	10655.01
972.06	10568.26
972.23	10610.53
972.39	10433.99
972.56	10528.69
972.73	10353.14
972.89	10447.02
973.06	10424.32
973.23	10334.38
973.39	10303.25
973.56	10291.45
973.73	10228.05
973.89	10246.81
974.06	10147.52
974.23	10156.53
974.39	10121.31
974.56	10071.42
974.73	9999.74
974.89	9969.18
975.06	9965.42
975.23	10032.59
975.39	9864.98
975.56	9899.88
975.73	9865.97
975.89	9801.50
976.06	9793.39
976.23	9748.58
976.39	9743.09
976.56	9727.61
976.73	9680.01
976.89	9624.55
977.06	9587.85
977.23	9512.41
977.39	9523.22
977.56	9551.48
977.72	9420.08
977.89	9467.43
978.06	9426.39
978.22	9378.80
978.39	9403.45
978.56	9333.74
978.72	9321.70
978.89	9321.29
979.05	9261.90
979.22	9266.65
979.39	9191.61
979.55	9170.07
979.72	9113.30
979.88	9136.48
980.05	9037.03
980.22	9112.07
980.38	9000.49
980.55	9000.33
980.71	8971.91
980.88	8970.76
981.05	8945.61
981.21	8895.23
981.38	8867.46
981.54	8883.68
981.71	8791.93
981.88	8802.50
982.04	8789.14
982.21	8730.00
982.37	8704.28
982.54	8722.63
982.70	8625.14
982.87	8674.05
983.04	8510.95
983.20	8642.35
983.37	8501.69
983.53	8561.74
983.70	8521.84
983.86	8491.62
984.03	8427.64
984.20	8465.32
984.36	8395.93
984.53	8440.66
984.69	8336.87
984.86	8282.97
985.02	8299.43
985.19	8265.27
985.35	8234.23
985.52	8195.07
985.68	8188.93
985.85	8181.23
986.02	8142.31
986.18	8134.20
986.35	8140.92
986.51	8142.48
986.68	8101.93
986.84	8048.19
987.01	8052.12
987.17	8054.09
987.34	8018.29
987.50	8021.73
987.67	7898.85
987.83	7965.12
988.00	7895.98
988.16	7891.15
988.33	7835.53
988.49	7854.29
988.66	7777.04
988.82	7797.35
988.99	7761.23
989.15	7777.20
989.32	7644.17
989.48	7678.65
989.65	7585.35
989.81	7624.67
989.98	7545.70
990.14	7504.25
990.31	7551.76
990.47	7493.60
990.64	7541.69
990.80	7464.93
990.97	7419.14
991.13	7441.25
991.30	7431.59
991.46	7390.14
991.63	7373.26
991.79	7380.88
991.95	7251.12
992.12	7375.88
992.28	7298.22
992.45	7281.76
992.61	7272.42
992.78	7239.82
992.94	7214.09
993.11	7280.94
993.27	7187.55
993.44	7170.51
993.60	7168.46
993.76	7146.43
993.93	7119.23
994.09	7131.19
994.26	7082.61
994.42	7084.50
994.59	6999.06
994.75	7039.93
994.91	6964.65
995.08	6893.14
995.24	6862.83
995.41	6908.95
995.57	6902.56
995.74	6829.89
995.90	6840.46
996.06	6805.15
996.23	6792.95
996.39	6776.89
996.56	6724.22
996.72	6763.05
996.88	6760.26
997.05	6733.56
997.21	6714.63
997.38	6716.19
997.54	6606.42
997.70	6664.50
997.87	6652.21
998.03	6643.61
998.20	6542.77
998.36	6570.78
998.52	6499.02
998.69	6604.21
998.85	6494.85
999.02	6518.11
999.18	6462.98
999.34	6517.95
999.51	6474.69
999.67	6466.26
999.83	6440.37
1000.00	6418.50
1000.16	6370.82
1000.33	6366.48
1000.49	6303.07
1000.65	6368.86
1000.82	6369.92
1000.98	6244.50
1001.14	6268.91
1001.31	6272.03
1001.47	6265.88
1001.63	6232.05
1001.80	6173.72
1001.96	6150.79
1002.12	6148.25
1002.29	6194.20
1002.45	6135.63
1002.61	6111.55
1002.78	6098.03
1002.94	6102.29
1003.10	6053.96
1003.27	6062.97
1003.43	6010.95
1003.59	6033.97
1003.76	6059.94
1003.92	6021.85
1004.08	5980.64
1004.25	6030.20
1004.41	5936.32
1004.57	5952.46
1004.74	5926.49
1004.90	5985.07
1005.06	5892.99
1005.23	5887.50
1005.39	5870.79
1005.55	5888.07
1005.71	5865.30
1005.88	5814.10
1006.04	5865.79
1006.20	5802.63
1006.37	5709.08
1006.53	5745.04
1006.69	5725.87
1006.85	5755.28
1007.02	5691.14
1007.18	5711.70
1007.34	5648.38
1007.51	5708.18
1007.67	5627.08
1007.83	5632.16
1007.99	5606.03
1008.16	5598.49
1008.32	5557.86
1008.48	5597.10
1008.64	5565.89
1008.81	5595.05
1008.97	5550.57
1009.13	5549.67
1009.29	5519.60
1009.46	5533.45
1009.62	5507.07
1009.78	5489.46
1009.95	5496.91
1010.11	5468.40
1010.27	5438.18
1010.43	5424.17
1010.59	5458.25
1010.76	5390.17
1010.92	5380.01
1011.08	5378.13
1011.24	5337.74
1011.41	5432.03
1011.57	5349.70
1011.73	5362.48
1011.89	5280.73
1012.06	5346.43
1012.22	5249.03
1012.38	5293.92
1012.54	5258.86
1012.70	5265.74
1012.87	5192.26
1013.03	5262.05
1013.19	5198.40
1013.35	5212.16
1013.51	5113.70
1013.68	5212.98
1013.84	5147.28
1014.00	5155.64
1014.16	5105.01
1014.32	5103.37
1014.49	5092.64
1014.65	5146.30
1014.81	5053.57
1014.97	5101.33
1015.13	5062.66
1015.30	5093.38
1015.46	5057.91
1015.62	5080.93
1015.78	5032.84
1015.94	4993.36
1016.10	4979.43
1016.27	4972.96
1016.43	4974.35
1016.59	4989.92
1016.75	4955.76
1016.91	4972.39
1017.07	4923.40
1017.24	4921.02
1017.40	4886.29
1017.56	4886.45
1017.72	4872.69
1017.88	4853.52
1018.04	4868.84
1018.21	4873.51
1018.37	4826.65
1018.53	4859.42
1018.69	4821.00
1018.85	4821.90
1019.01	4765.38
1019.17	4794.95
1019.34	4749.73
1019.50	4773.08
1019.66	4704.02
1019.82	4730.73
1019.98	4728.02
1020.14	4760.63
1020.30	4730.48
1020.46	4736.21
1020.63	4690.18
1020.79	4664.45
1020.95	4699.11
1021.11	4688.62
1021.27	4646.10
1021.43	4658.88
1021.59	4707.95
1021.75	4626.28
1021.91	4598.92
1022.07	4596.71
1022.24	4607.36
1022.40	4585.48
1022.56	4542.72
1022.72	4614.81
1022.88	4558.21
1023.04	4595.64
1023.20	4568.12
1023.36	4529.62
1023.52	4551.90
1023.68	4547.72
1023.84	4520.03
1024.01	4495.70
1024.17	4473.42
1024.33	4475.22
1024.49	4488.90
1024.65	4462.20
1024.81	4467.36
1024.97	4466.62
1025.13	4440.65
1025.29	4459.17
1025.45	4409.85
1025.61	4444.42
1025.77	4400.27
1025.93	4426.73
1026.09	4383.72
1026.25	4419.27
1026.41	4369.79
1026.57	4386.26
1026.73	4395.92
1026.90	4355.70
1027.06	4356.93
1027.22	4356.52
1027.38	4351.44
1027.54	4371.35
1027.70	4321.79
1027.86	4342.27
1028.02	4318.02
1028.18	4340.79
1028.34	4308.76
1028.50	4339.89
1028.66	4271.49
1028.82	4329.73
1028.98	4268.05
1029.14	4231.92
1029.30	4274.93
1029.46	4269.61
1029.62	4266.74
1029.78	4214.88
1029.94	4215.29
1030.10	4215.29
1030.26	4161.72
1030.42	4212.59
1030.58	4193.75
1030.74	4185.31
1030.90	4162.13
1031.06	4175.56
1031.22	4146.07
1031.38	4150.66
1031.54	4160.90
1031.70	4152.79
1031.86	4155.66
1032.02	4131.57
1032.18	4088.73
1032.34	4132.15
1032.50	4083.08
1032.66	4129.44
1032.82	4059.48
1032.98	4118.96
1033.14	4090.61
1033.30	4116.99
1033.45	4043.59
1033.61	4110.36
1033.77	4059.48
1033.93	4076.85
1034.09	4064.56
1034.25	4066.12
1034.41	4038.43
1034.57	4041.38
1034.73	4023.60
1034.89	4024.83
1035.05	4024.91
1035.21	4039.41
1035.37	4009.35
1035.53	3987.97
1035.69	3985.02
1035.85	4039.82
1036.01	3963.56
1036.16	4007.22
1036.32	4001.32
1036.48	3963.39
1036.64	3914.57
1036.80	3984.04
1036.96	3950.78
1037.12	3958.72
1037.28	3996.16
1037.44	3942.91
1037.60	3965.77
1037.76	3901.71
1037.91	3918.58
1038.07	3956.43
1038.23	3937.75
1038.39	3942.91
1038.55	3918.26
1038.71	3931.20
1038.87	3889.26
1039.03	3948.40
1039.19	3884.59
1039.35	3889.17
1039.50	3929.48
1039.66	3911.87
1039.82	3856.24
1039.98	3857.55
1040.14	3831.75
1040.30	3840.60
1040.46	3805.13
1040.62	3816.51
1040.77	3843.14
1040.93	3887.21
1041.09	3834.94
1041.25	3815.20
1041.41	3860.09
1041.57	3815.28
1041.73	3815.28
1041.88	3815.28

