SpectraSuite Data File
++++++++++++++++++++++++++++++++++++
Date: Tue Sep 13 12:52:58 EDT 2022
User: Laboratoire
Dark Spectrum Present: No
Reference Spectrum Present: No
Number of Sampled Component Spectra: 1
Spectrometers: FLMT00174
Integration Time (usec): 12000 (FLMT00174)
Spectra Averaged: 25 (FLMT00174)
Boxcar Smoothing: 0 (FLMT00174)
Correct for Electrical Dark: No (FLMT00174)
Strobe/Lamp Enabled: No (FLMT00174)
Correct for Detector Non-linearity: No (FLMT00174)
Correct for Stray Light: No (FLMT00174)
Number of Pixels in Processed Spectrum: 3648
>>>>>Begin Processed Spectral Data<<<<<
345.74	3128.23
345.96	3128.23
346.18	3128.23
346.39	3155.35
346.61	3201.71
346.83	3173.37
347.05	3178.37
347.27	3182.46
347.49	3180.33
347.71	3186.80
347.93	3183.12
348.15	3196.14
348.36	3165.59
348.58	3178.37
348.80	3185.08
349.02	3177.96
349.24	3174.19
349.46	3281.58
349.68	3333.60
349.90	3342.61
350.11	3331.06
350.33	3326.80
350.55	3322.95
350.77	3330.82
350.99	3318.61
351.21	3339.09
351.43	3318.61
351.65	3334.67
351.86	3313.20
352.08	3323.03
352.30	3311.24
352.52	3345.15
352.74	3326.72
352.96	3331.06
353.18	3332.37
353.39	3324.10
353.61	3327.29
353.83	3349.74
354.05	3367.76
354.27	3334.75
354.49	3350.31
354.70	3331.80
354.92	3326.07
355.14	3325.82
355.36	3333.11
355.58	3341.22
355.80	3323.28
356.02	3341.38
356.23	3339.58
356.45	3340.32
356.67	3351.62
356.89	3339.83
357.11	3340.65
357.33	3349.33
357.54	3316.64
357.76	3334.42
357.98	3311.48
358.20	3327.21
358.42	3329.18
358.63	3329.51
358.85	3345.32
359.07	3341.55
359.29	3317.79
359.51	3333.52
359.73	3328.03
359.94	3314.84
360.16	3334.26
360.38	3330.41
360.60	3333.03
360.82	3322.05
361.03	3337.70
361.25	3338.19
361.47	3350.56
361.69	3352.20
361.91	3339.50
362.12	3335.40
362.34	3342.69
362.56	3355.88
362.78	3327.38
363.00	3344.99
363.21	3341.14
363.43	3345.89
363.65	3337.62
363.87	3333.36
364.09	3330.57
364.30	3344.25
364.52	3326.15
364.74	3352.77
364.96	3317.46
365.17	3339.75
365.39	3345.89
365.61	3345.15
365.83	3361.37
366.05	3345.15
366.26	3349.82
366.48	3360.88
366.70	3360.14
366.92	3346.46
367.13	3339.50
367.35	3360.31
367.57	3347.04
367.79	3353.26
368.01	3348.35
368.22	3360.80
368.44	3347.53
368.66	3382.67
368.88	3336.96
369.09	3349.25
369.31	3350.80
369.53	3351.21
369.75	3351.87
369.96	3365.22
370.18	3348.67
370.40	3363.09
370.62	3366.53
370.83	3357.77
371.05	3381.20
371.27	3371.12
371.49	3360.06
371.70	3354.65
371.92	3356.62
372.14	3368.99
372.36	3374.81
372.57	3392.75
372.79	3376.04
373.01	3365.55
373.22	3370.47
373.44	3376.28
373.66	3358.26
373.88	3377.43
374.09	3378.74
374.31	3359.00
374.53	3370.47
374.75	3393.40
374.96	3366.12
375.18	3397.58
375.40	3384.23
375.61	3399.22
375.83	3393.48
376.05	3366.21
376.27	3393.73
376.48	3389.80
376.70	3387.26
376.92	3397.74
377.13	3388.00
377.35	3391.19
377.57	3386.19
377.79	3398.56
378.00	3394.71
378.22	3424.78
378.44	3383.82
378.65	3415.77
378.87	3393.40
379.09	3426.74
379.30	3405.28
379.52	3401.35
379.74	3402.17
379.96	3399.22
380.17	3415.19
380.39	3404.05
380.61	3411.10
380.82	3418.14
381.04	3403.15
381.26	3424.78
381.47	3408.72
381.69	3434.61
381.91	3407.49
382.12	3447.80
382.34	3441.00
382.56	3444.93
382.77	3429.04
382.99	3444.44
383.21	3442.23
383.42	3444.60
383.64	3446.57
383.86	3443.86
384.07	3440.10
384.29	3447.39
384.51	3438.79
384.72	3442.55
384.94	3455.09
385.16	3479.01
385.37	3443.95
385.59	3472.04
385.81	3451.81
386.02	3477.04
386.24	3477.86
386.46	3467.46
386.67	3488.35
386.89	3498.01
387.11	3484.00
387.32	3506.70
387.54	3510.30
387.76	3507.11
387.97	3522.59
388.19	3521.20
388.40	3528.24
388.62	3542.49
388.84	3545.69
389.05	3535.94
389.27	3553.31
389.49	3568.87
389.70	3552.16
389.92	3567.81
390.14	3557.65
390.35	3581.73
390.57	3575.92
390.78	3586.24
391.00	3565.19
391.22	3576.33
391.43	3598.04
391.65	3601.97
391.86	3634.90
392.08	3628.18
392.30	3611.80
392.51	3624.09
392.73	3656.03
392.95	3637.77
393.16	3632.61
393.38	3652.18
393.59	3648.25
393.81	3678.15
394.03	3672.42
394.24	3653.49
394.46	3658.49
394.67	3698.39
394.89	3669.06
395.11	3670.53
395.32	3703.63
395.54	3709.85
395.75	3682.90
395.97	3693.63
396.19	3684.54
396.40	3721.32
396.62	3700.84
396.83	3703.55
397.05	3713.38
397.26	3717.64
397.48	3736.15
397.70	3726.24
397.91	3746.80
398.13	3716.57
398.34	3722.39
398.56	3746.31
398.78	3739.84
398.99	3765.64
399.21	3755.81
399.42	3776.37
399.64	3765.15
399.85	3753.93
400.07	3777.77
400.29	3796.44
400.50	3761.30
400.72	3801.52
400.93	3775.06
401.15	3802.59
401.36	3809.39
401.58	3809.55
401.79	3810.12
402.01	3813.40
402.23	3837.73
402.44	3842.73
402.66	3833.96
402.87	3859.93
403.09	3846.49
403.30	3855.92
403.52	3848.05
403.73	3860.83
403.95	3884.10
404.16	3886.39
404.38	3881.31
404.60	3888.27
404.81	3915.63
405.03	3934.39
405.24	3938.00
405.46	3952.91
405.67	3944.31
405.89	3997.80
406.10	3982.89
406.32	3995.10
406.53	3984.20
406.75	4005.91
406.96	4020.24
407.18	4041.54
407.39	4051.78
407.61	4089.79
407.82	4052.03
408.04	4092.99
408.25	4072.59
408.47	4117.81
408.68	4117.56
408.90	4137.06
409.12	4152.79
409.33	4185.47
409.55	4142.22
409.76	4187.69
409.98	4176.96
410.19	4197.76
410.41	4242.98
410.62	4250.27
410.84	4218.00
411.05	4265.84
411.27	4292.38
411.48	4276.73
411.70	4300.49
411.91	4298.77
412.12	4341.20
412.34	4316.38
412.55	4349.72
412.77	4332.44
412.98	4375.12
413.20	4363.40
413.41	4384.13
413.63	4371.92
413.84	4388.47
414.06	4397.97
414.27	4417.30
414.49	4433.93
414.70	4408.54
414.92	4451.30
415.13	4421.73
415.35	4432.05
415.56	4464.82
415.78	4435.00
415.99	4462.28
416.21	4476.78
416.42	4507.74
416.63	4480.46
416.85	4495.95
417.06	4495.37
417.28	4450.32
417.49	4534.94
417.71	4491.69
417.92	4519.70
418.14	4493.98
418.35	4533.30
418.57	4542.23
418.78	4532.32
418.99	4516.67
419.21	4554.11
419.42	4533.14
419.64	4553.95
419.85	4551.32
420.07	4600.80
420.28	4556.57
420.50	4558.45
420.71	4571.64
420.92	4594.50
421.14	4592.69
421.35	4579.91
421.57	4588.92
421.78	4602.60
422.00	4590.40
422.21	4629.06
422.42	4615.22
422.64	4589.83
422.85	4659.21
423.07	4655.11
423.28	4647.00
423.50	4658.56
423.71	4682.07
423.92	4704.35
424.14	4675.76
424.35	4721.39
424.57	4706.23
424.78	4730.97
424.99	4774.06
425.21	4744.49
425.42	4752.27
425.64	4738.43
425.85	4794.21
426.06	4798.88
426.28	4798.64
426.49	4860.49
426.71	4806.83
426.92	4848.12
427.13	4868.10
427.35	4930.94
427.56	4941.18
427.78	4914.06
427.99	4940.19
428.20	4975.09
428.42	4979.60
428.63	5006.22
428.84	4963.29
429.06	5013.76
429.27	5054.80
429.49	5068.97
429.70	5109.68
429.91	5110.99
430.13	5120.58
430.34	5166.37
430.56	5169.65
430.77	5216.34
430.98	5191.60
431.20	5255.33
431.41	5277.29
431.62	5296.37
431.84	5286.95
432.05	5323.16
432.26	5343.07
432.48	5297.44
432.69	5421.79
432.91	5387.80
433.12	5433.83
433.33	5450.38
433.55	5536.40
433.76	5537.46
433.97	5501.42
434.19	5553.93
434.40	5626.75
434.61	5632.73
434.83	5643.38
435.04	5614.22
435.25	5691.88
435.47	5715.55
435.68	5660.26
435.89	5794.28
436.11	5762.00
436.32	5774.70
436.53	5817.21
436.75	5808.20
436.96	5818.85
437.17	5790.02
437.39	5842.94
437.60	5888.16
437.81	5890.20
438.03	5886.76
438.24	5911.09
438.45	6004.23
438.67	5949.84
438.88	5988.92
439.09	6064.61
439.31	6048.96
439.52	6069.52
439.73	6049.62
439.94	6009.72
440.16	6055.68
440.37	6066.57
440.58	6134.73
440.80	6128.75
441.01	6108.93
441.22	6237.79
441.44	6208.13
441.65	6180.36
441.86	6186.83
442.08	6218.29
442.29	6191.26
442.50	6245.90
442.71	6187.41
442.93	6223.37
443.14	6226.15
443.35	6259.90
443.57	6216.49
443.78	6299.47
443.99	6291.69
444.20	6268.91
444.42	6314.38
444.63	6283.58
444.84	6337.97
445.06	6343.54
445.27	6288.41
445.48	6318.07
445.69	6350.91
445.91	6325.11
446.12	6284.72
446.33	6328.06
446.54	6402.61
446.76	6319.38
446.97	6382.04
447.18	6354.03
447.39	6404.65
447.61	6396.05
447.82	6423.82
448.03	6404.98
448.25	6441.76
448.46	6464.78
448.67	6441.11
448.88	6390.65
449.10	6474.37
449.31	6477.07
449.52	6443.97
449.73	6459.29
449.95	6553.91
450.16	6474.78
450.37	6580.04
450.58	6651.47
450.79	6469.21
451.01	6554.24
451.22	6512.05
451.43	6555.38
451.64	6597.82
451.86	6592.90
452.07	6620.76
452.28	6667.12
452.49	6707.34
452.71	6633.94
452.92	6603.31
453.13	6686.86
453.34	6650.25
453.55	6776.81
453.77	6765.75
453.98	6770.50
454.19	6714.80
454.40	6772.71
454.62	6831.37
454.83	6764.03
455.04	6886.75
455.25	6788.69
455.46	6976.36
455.68	6896.33
455.89	6884.12
456.10	6933.93
456.31	6996.19
456.52	7004.63
456.74	6976.69
456.95	7111.04
457.16	7065.41
457.37	7140.61
457.58	7116.36
457.80	7104.65
458.01	7112.27
458.22	7354.67
458.43	7251.69
458.64	7284.87
458.86	7187.96
459.07	7268.57
459.28	7276.27
459.49	7384.24
459.70	7536.36
459.91	7448.13
460.13	7466.73
460.34	7539.56
460.55	7487.62
460.76	7592.56
460.97	7569.87
461.19	7606.89
461.40	7812.10
461.61	7704.46
461.82	7745.58
462.03	7778.43
462.24	7779.74
462.46	7794.65
462.67	7819.31
462.88	7926.70
463.09	7911.47
463.30	8036.48
463.51	7953.08
463.72	8138.63
463.94	8154.77
464.15	8143.38
464.36	8105.29
464.57	8332.94
464.78	8258.47
464.99	8311.23
465.20	8293.62
465.42	8406.67
465.63	8390.12
465.84	8419.12
466.05	8512.50
466.26	8519.47
466.47	8613.84
466.68	8550.11
466.90	8692.81
467.11	8628.58
467.32	8724.92
467.53	8808.40
467.74	8694.04
467.95	8775.22
468.16	8868.36
468.37	8986.08
468.59	8948.80
468.80	9078.32
469.01	8961.50
469.22	9063.90
469.43	9237.08
469.64	9136.07
469.85	9238.31
470.06	9260.34
470.28	9357.99
470.49	9210.13
470.70	9352.50
470.91	9561.97
471.12	9423.52
471.33	9591.95
471.54	9538.13
471.75	9573.52
471.96	9761.44
472.17	9683.70
472.39	9905.21
472.60	9673.13
472.81	9917.74
473.02	9838.03
473.23	10003.18
473.44	10021.04
473.65	9980.65
473.86	10095.42
474.07	10073.71
474.28	10172.92
474.49	10348.88
474.71	10252.95
474.92	10423.59
475.13	10308.33
475.34	10381.15
475.55	10417.12
475.76	10464.38
475.97	10651.65
476.18	10597.26
476.39	10727.51
476.60	10788.13
476.81	10806.80
477.02	10898.72
477.23	10881.27
477.44	10915.10
477.65	11031.51
477.87	11144.80
478.08	11176.42
478.29	11185.27
478.50	11357.54
478.71	11257.36
478.92	11368.27
479.13	11388.51
479.34	11442.41
479.55	11501.88
479.76	11484.44
479.97	11496.40
480.18	11746.41
480.39	11579.13
480.60	11804.49
480.81	11821.61
481.02	11863.96
481.23	11884.12
481.44	12012.57
481.65	12060.90
481.86	12217.12
482.07	11999.62
482.28	12398.16
482.49	12256.77
482.71	12296.33
482.92	12361.95
483.13	12506.45
483.34	12447.06
483.55	12532.75
483.76	12528.49
483.97	12686.51
484.18	12688.97
484.39	12763.84
484.60	12705.68
484.81	12863.13
485.02	12823.89
485.23	12971.42
485.44	13016.73
485.65	13084.47
485.86	13029.34
486.07	13176.71
486.28	13141.08
486.49	13260.76
486.70	13332.77
486.91	13437.38
487.12	13376.19
487.33	13370.29
487.54	13571.32
487.75	13617.19
487.96	13635.05
488.17	13634.15
488.38	13769.97
488.59	13720.82
488.80	13801.10
489.01	13848.28
489.22	14004.67
489.43	13988.61
489.64	13902.02
489.85	14228.80
490.06	13995.25
490.26	14234.94
490.47	14211.84
490.68	14435.15
490.89	14485.28
491.10	14307.52
491.31	14509.20
491.52	14595.87
491.73	14554.75
491.94	14580.06
492.15	14679.10
492.36	14756.19
492.57	14759.96
492.78	14782.81
492.99	14882.92
493.20	15041.51
493.41	15025.70
493.62	15117.29
493.83	15077.39
494.04	15201.74
494.25	15307.83
494.46	15343.05
494.67	15232.05
494.88	15361.73
495.08	15482.40
495.29	15509.19
495.50	15616.83
495.71	15587.34
495.92	15743.15
496.13	15760.68
496.34	15736.26
496.55	15805.49
496.76	16084.42
496.97	15869.38
497.18	16074.59
497.39	16075.90
497.60	16330.26
497.81	16193.78
498.02	16306.83
498.22	16117.27
498.43	16466.16
498.64	16484.76
498.85	16437.49
499.06	16541.61
499.27	16734.03
499.48	16418.98
499.69	16674.32
499.90	16731.66
500.11	16868.38
500.32	17034.27
500.52	16931.79
500.73	17238.49
500.94	17204.74
501.15	17237.10
501.36	17288.62
501.57	17217.76
501.78	17331.14
501.99	17496.53
502.20	17510.46
502.41	17538.89
502.61	17525.62
502.82	17710.18
503.03	17660.78
503.24	17867.63
503.45	17727.46
503.66	17967.49
503.87	17926.69
504.08	18155.49
504.28	17999.35
504.49	18134.60
504.70	18186.29
504.91	18302.45
505.12	18114.28
505.33	18401.24
505.54	18376.75
505.75	18344.31
505.95	18526.25
506.16	18444.91
506.37	18451.71
506.58	18716.47
506.79	18497.66
507.00	18751.20
507.21	18631.35
507.41	18677.64
507.62	18696.48
507.83	19027.02
508.04	18808.30
508.25	19077.57
508.46	18857.78
508.67	19177.59
508.87	18973.94
509.08	19199.63
509.29	19126.88
509.50	19208.47
509.71	19253.04
509.92	19330.70
510.12	19263.11
510.33	19390.66
510.54	19360.84
510.75	19445.55
510.96	19541.64
511.17	19631.17
511.37	19602.01
511.58	19770.76
511.79	19584.73
512.00	19546.06
512.21	19865.46
512.42	19850.88
512.62	19862.27
512.83	19972.45
513.04	19851.37
513.25	20091.06
513.46	19733.00
513.66	20253.18
513.87	20121.95
514.08	20272.84
514.29	20120.06
514.50	20133.01
514.71	20373.93
514.91	20238.52
515.12	20284.56
515.33	20464.04
515.54	20428.49
515.75	20682.52
515.95	20525.56
516.16	20584.13
516.37	20723.40
516.58	20694.89
516.78	20653.85
516.99	20845.29
517.20	20804.41
517.41	20861.27
517.62	20972.18
517.82	20917.38
518.03	21144.62
518.24	21424.46
518.45	21027.31
518.66	21260.70
518.86	21155.93
519.07	21422.00
519.28	21098.83
519.49	21550.69
519.69	21587.72
519.90	21626.71
520.11	21630.89
520.32	21555.44
520.52	21805.21
520.73	21613.61
520.94	21916.13
521.15	21821.11
521.36	21633.02
521.56	22059.08
521.77	21750.98
521.98	22141.00
522.19	21887.79
522.39	22087.18
522.60	21999.03
522.81	22135.02
523.02	22083.49
523.22	22225.62
523.43	22399.21
523.64	22334.82
523.84	22373.81
524.05	22527.90
524.26	22552.31
524.47	22378.73
524.67	22519.05
524.88	22585.49
525.09	22779.88
525.30	22540.85
525.50	22612.77
525.71	22698.87
525.92	22742.37
526.13	22937.66
526.33	22767.35
526.54	22632.76
526.75	22794.47
526.95	23023.43
527.16	22714.35
527.37	23030.31
527.58	23075.12
527.78	23039.98
527.99	23188.00
528.20	23230.68
528.40	23060.37
528.61	23027.44
528.82	23316.12
529.03	23220.53
529.23	23156.79
529.44	23353.97
529.65	23323.50
529.85	23393.05
530.06	23391.82
530.27	23446.70
530.47	23212.33
530.68	23698.60
530.89	23253.13
531.09	23644.54
531.30	23537.22
531.51	23427.29
531.72	23718.92
531.92	23690.33
532.13	23794.86
532.34	23673.62
532.54	23676.24
532.75	23830.90
532.96	23734.24
533.16	23891.11
533.37	23965.74
533.58	23780.77
533.78	24042.74
533.99	24061.99
534.20	23790.27
534.40	24044.30
534.61	24122.61
534.82	24102.46
535.02	24133.76
535.23	24160.71
535.44	24282.93
535.64	24223.70
535.85	24332.16
536.06	24283.67
536.26	24345.43
536.47	24270.81
536.68	24472.00
536.88	24195.28
537.09	24606.75
537.29	24267.12
537.50	24692.93
537.71	24435.30
537.91	24606.26
538.12	24760.60
538.33	24670.90
538.53	24780.50
538.74	24870.04
538.95	24840.47
539.15	24744.71
539.36	24929.60
539.56	25095.81
539.77	24845.71
539.98	24945.98
540.18	25161.67
540.39	24974.16
540.60	25184.69
540.80	25344.51
541.01	25342.79
541.21	25322.81
541.42	25449.62
541.63	25418.32
541.83	25618.86
542.04	25619.84
542.25	25608.87
542.45	25735.92
542.66	25703.97
542.86	25905.00
543.07	25423.57
543.28	25943.83
543.48	25837.50
543.69	26049.92
543.89	25948.67
544.10	26312.71
544.31	26190.33
544.51	26174.68
544.72	26319.18
544.92	26177.14
545.13	26458.12
545.33	26557.57
545.54	26458.94
545.75	26699.45
545.95	26604.83
546.16	26623.76
546.36	26936.36
546.57	26505.96
546.78	26156.98
546.98	26587.80
547.19	26244.72
547.39	26832.24
547.60	27028.35
547.80	27321.38
548.01	27426.89
548.22	27255.84
548.42	27379.62
548.63	27512.33
548.83	27477.68
549.04	27707.30
549.24	27555.91
549.45	27757.92
549.65	28046.03
549.86	27669.37
550.07	27873.84
550.27	28151.38
550.48	28225.68
550.68	28125.00
550.89	28136.31
551.09	28362.81
551.30	28318.66
551.50	28516.82
551.71	28445.22
551.91	28557.45
552.12	28674.02
552.33	28871.53
552.53	28571.05
552.74	28990.64
552.94	29043.06
553.15	28886.76
553.35	29137.02
553.56	28938.45
553.76	29269.73
553.97	29119.58
554.17	29235.08
554.38	29708.90
554.58	29325.19
554.79	29759.61
554.99	29421.53
555.20	29513.20
555.40	29893.46
555.61	29832.35
555.81	29611.99
556.02	30243.83
556.22	30177.39
556.43	30086.22
556.63	30150.11
556.84	30108.91
557.04	30570.93
557.25	30173.22
557.45	30428.56
557.66	30456.74
557.86	30388.33
558.07	30803.66
558.27	30656.70
558.48	30706.51
558.68	30757.30
558.89	30876.08
559.09	31019.85
559.30	30879.68
559.50	31150.26
559.71	30827.58
559.91	31238.08
560.12	31156.08
560.32	31138.63
560.53	31292.88
560.73	31218.58
560.94	31505.71
561.14	31267.90
561.35	31657.01
561.55	31587.95
561.76	31791.19
561.96	31499.89
562.17	31839.69
562.37	31985.18
562.57	31780.46
562.78	31704.11
562.98	32009.75
563.19	32058.90
563.39	32325.63
563.60	32239.70
563.80	31980.59
564.01	32365.52
564.21	32168.76
564.42	32054.89
564.62	32151.06
564.82	32576.22
565.03	32419.43
565.23	32582.61
565.44	32632.91
565.64	32603.42
565.85	32843.19
566.05	32705.90
566.25	32925.60
566.46	32645.44
566.66	32822.47
566.87	32907.74
567.07	32877.03
567.28	32943.38
567.48	33118.93
567.68	32770.86
567.89	33460.12
568.09	33233.86
568.30	33349.12
568.50	33626.09
568.71	33458.24
568.91	33725.70
569.11	33366.98
569.32	33397.46
569.52	33603.24
569.73	33287.19
569.93	33807.05
570.13	33640.92
570.34	33609.87
570.54	33951.64
570.75	33862.84
570.95	33808.52
571.15	33752.25
571.36	34062.80
571.56	33792.88
571.77	33807.70
571.97	33637.80
572.17	34162.90
572.38	34081.48
572.58	34334.85
572.79	34226.88
572.99	34235.98
573.19	34224.59
573.40	34205.42
573.60	34210.33
573.81	34251.70
574.01	34489.02
574.21	34406.20
574.42	34438.48
574.62	34368.68
574.82	34701.68
575.03	34465.10
575.23	34701.85
575.43	34592.73
575.64	34500.57
575.84	34895.67
576.05	34620.91
576.25	34732.32
576.45	34681.78
576.66	35075.56
576.86	34785.49
577.06	35125.04
577.27	34910.74
577.47	34889.20
577.67	34778.93
577.88	34525.31
578.08	35055.08
578.28	35025.43
578.49	34895.75
578.69	35084.74
578.89	34883.13
579.10	35064.58
579.30	35560.03
579.50	35147.81
579.71	34944.33
579.91	35301.57
580.11	35190.08
580.32	35122.17
580.52	35168.05
580.72	35563.14
580.93	35010.84
581.13	35109.88
581.33	35453.86
581.54	35239.73
581.74	35233.91
581.94	35369.57
582.15	35522.18
582.35	35295.10
582.55	35449.60
582.76	35223.34
582.96	35792.92
583.16	35464.27
583.37	35667.01
583.57	35345.24
583.77	35783.58
583.97	35026.08
584.18	35836.83
584.38	35516.12
584.58	35309.60
584.79	35643.59
584.99	35489.66
585.19	35567.97
585.40	35493.35
585.60	35746.88
585.80	35363.18
586.00	35682.82
586.21	35592.22
586.41	35691.10
586.61	35826.02
586.82	35736.32
587.02	35586.73
587.22	35923.34
587.42	35377.51
587.63	35814.30
587.83	35296.66
588.03	35602.95
588.23	35256.85
588.44	35397.91
588.64	35278.23
588.84	35404.22
589.05	35635.39
589.25	35615.24
589.45	35635.72
589.65	35463.61
589.86	35712.97
590.06	35711.66
590.26	35591.57
590.46	35866.57
590.67	35347.29
590.87	35887.87
591.07	35916.13
591.27	35531.52
591.48	35842.24
591.68	35408.07
591.88	36097.17
592.08	35550.94
592.29	35825.53
592.49	35732.30
592.69	36037.94
592.89	35779.82
593.10	35747.70
593.30	35743.20
593.50	36152.63
593.70	35292.24
593.90	35895.32
594.11	35770.40
594.31	35772.85
594.51	36086.93
594.71	35916.29
594.92	35925.39
595.12	35796.69
595.32	35914.74
595.52	36130.18
595.72	35559.54
595.93	36160.82
596.13	35955.94
596.33	35829.05
596.53	36083.24
596.73	35938.08
596.94	35900.89
597.14	36191.62
597.34	36047.20
597.54	36250.19
597.74	35973.31
597.95	36121.83
598.15	36167.95
598.35	36243.23
598.55	36404.86
598.75	36246.67
598.96	36568.61
599.16	36243.89
599.36	36323.27
599.56	36394.12
599.76	36237.82
599.97	36623.74
600.17	36454.74
600.37	36558.70
600.57	36066.45
600.77	36643.73
600.97	36436.89
601.18	36869.34
601.38	36557.80
601.58	36811.91
601.78	36676.66
601.98	36529.70
602.18	36924.47
602.39	37237.07
602.59	37084.29
602.79	37031.62
602.99	36959.86
603.19	37050.79
603.39	36917.34
603.60	37011.30
603.80	36971.16
604.00	36910.95
604.20	36995.65
604.40	37186.85
604.60	37026.46
604.80	37067.33
605.01	37189.23
605.21	37229.37
605.41	37242.15
605.61	37069.63
605.81	37438.43
606.01	37639.37
606.21	37270.74
606.42	37564.25
606.62	37537.96
606.82	37775.93
607.02	37639.54
607.22	37855.15
607.42	38030.94
607.62	37614.71
607.82	37855.06
608.03	37966.72
608.23	37869.89
608.43	37742.10
608.63	38199.61
608.83	38152.76
609.03	38158.08
609.23	38272.19
609.43	38325.93
609.63	38122.94
609.84	38104.02
610.04	38675.97
610.24	38677.12
610.44	38804.50
610.64	38600.85
610.84	38768.38
611.04	39190.09
611.24	38934.75
611.44	38561.37
611.64	39195.50
611.85	39211.47
612.05	39192.14
612.25	39345.49
612.45	39064.92
612.65	39308.14
612.85	39296.18
613.05	39145.94
613.25	39536.69
613.45	39464.03
613.65	39593.46
613.85	39269.72
614.05	39830.45
614.25	40089.32
614.46	40087.51
614.66	39920.73
614.86	39915.48
615.06	40111.60
615.26	40470.32
615.46	39975.29
615.66	40518.32
615.86	40482.85
616.06	40258.31
616.26	40337.28
616.46	40867.79
616.66	40543.47
616.86	41063.66
617.06	40707.56
617.26	41154.51
617.46	41059.07
617.66	40947.25
617.86	40780.71
618.07	41203.57
618.27	41152.62
618.47	41357.25
618.67	41453.75
618.87	41687.39
619.07	41507.08
619.27	41517.57
619.47	41575.57
619.67	41941.17
619.87	41558.69
620.07	41850.41
620.27	41832.06
620.47	41576.63
620.67	41958.78
620.87	42063.72
621.07	42277.69
621.27	42197.90
621.47	41973.37
621.67	42458.90
621.87	42227.64
622.07	42716.70
622.27	42788.05
622.47	42641.49
622.67	42880.78
622.87	42572.19
623.07	43110.23
623.27	43380.07
623.47	42593.90
623.67	43066.90
623.87	43395.88
624.07	43271.70
624.27	42961.14
624.47	43221.73
624.67	43182.16
624.87	43373.27
625.07	43177.49
625.27	43771.48
625.47	43522.12
625.67	43428.16
625.87	43783.36
626.07	43857.82
626.27	44086.95
626.47	44068.85
626.67	44098.34
626.87	43858.64
627.07	44387.92
627.27	44358.10
627.47	44537.75
627.67	44375.14
627.87	44336.15
628.07	44633.51
628.27	44543.40
628.47	44291.01
628.67	44730.34
628.86	44828.40
629.06	44560.11
629.26	44390.71
629.46	44924.57
629.66	44827.09
629.86	44447.07
630.06	44982.57
630.26	44949.88
630.46	45410.84
630.66	45159.19
630.86	45440.41
631.06	45419.03
631.26	45236.27
631.46	45718.28
631.66	45726.64
631.86	45450.00
632.06	45663.97
632.26	45484.57
632.45	45610.64
632.65	45747.53
632.85	45991.23
633.05	45920.21
633.25	46191.77
633.45	45864.75
633.65	46025.07
633.85	46611.77
634.05	45839.52
634.25	46263.29
634.45	46228.23
634.65	46674.76
634.84	46346.27
635.04	46563.60
635.24	46301.79
635.44	46727.93
635.64	46430.65
635.84	46926.83
636.04	46746.36
636.24	46638.88
636.44	46737.02
636.64	46318.25
636.84	47230.66
637.03	46728.75
637.23	47027.18
637.43	47090.58
637.63	46822.05
637.83	47059.86
638.03	46974.01
638.23	46650.02
638.43	47158.99
638.62	47380.49
638.82	46605.87
639.02	47339.21
639.22	47097.96
639.42	47309.88
639.62	47088.45
639.82	47165.62
640.02	47356.33
640.21	47472.41
640.41	46827.62
640.61	47288.09
640.81	47212.32
641.01	47025.29
641.21	47162.59
641.41	47804.42
641.61	47364.44
641.80	47469.95
642.00	47847.19
642.20	47876.51
642.40	47168.57
642.60	47516.97
642.80	47648.53
642.99	47265.97
643.19	47720.54
643.39	47191.26
643.59	47614.86
643.79	47367.88
643.99	47900.10
644.19	47799.10
644.38	47460.04
644.58	47728.08
644.78	47634.28
644.98	47619.45
645.18	47847.68
645.38	48077.38
645.57	47685.89
645.77	47743.07
645.97	47556.78
646.17	47869.71
646.37	47797.30
646.56	47535.73
646.76	47776.57
646.96	47854.72
647.16	47583.73
647.36	47782.31
647.55	47785.25
647.75	48061.73
647.95	47721.85
648.15	47997.10
648.35	47877.33
648.55	48020.36
648.74	47774.93
648.94	47905.76
649.14	48246.54
649.34	47855.46
649.54	47697.68
649.73	47729.55
649.93	47527.87
650.13	47795.09
650.33	47598.32
650.52	47894.29
650.72	48159.87
650.92	47763.30
651.12	47496.41
651.32	47840.63
651.51	48003.57
651.71	48038.14
651.91	47791.23
652.11	47624.04
652.30	47371.97
652.50	47847.76
652.70	47782.14
652.90	47311.52
653.10	47585.29
653.29	47333.88
653.49	47762.97
653.69	47302.10
653.89	47403.92
654.08	47237.55
654.28	47570.96
654.48	47242.30
654.68	47555.15
654.87	47356.16
655.07	46998.51
655.27	47446.19
655.47	47024.89
655.66	47168.90
655.86	46941.98
656.06	47528.36
656.26	46619.39
656.45	47192.16
656.65	47184.22
656.85	47028.57
657.04	46762.50
657.24	46804.93
657.44	46630.94
657.64	47069.20
657.83	46371.17
658.03	47019.15
658.23	46899.71
658.43	46674.52
658.62	46729.57
658.82	46569.25
659.02	46544.84
659.21	46488.56
659.41	46298.84
659.61	46781.01
659.81	46325.22
660.00	46120.91
660.20	46293.19
660.40	46105.02
660.59	46186.61
660.79	45862.38
660.99	46304.33
661.19	46263.04
661.38	46225.36
661.58	45532.90
661.78	45961.33
661.97	45834.85
662.17	46399.52
662.37	45715.33
662.56	45812.98
662.76	45720.57
662.96	45847.55
663.15	45905.79
663.35	45837.39
663.55	45610.89
663.74	45361.77
663.94	45823.96
664.14	45195.72
664.33	45446.06
664.53	45217.43
664.73	45708.37
664.93	45154.60
665.12	45453.19
665.32	45150.91
665.52	45273.46
665.71	45102.58
665.91	45359.15
666.10	45121.75
666.30	45499.39
666.50	44965.61
666.69	44993.63
666.89	45218.58
667.09	45372.67
667.28	44806.77
667.48	44728.87
667.68	44847.08
667.87	44799.15
668.07	44540.94
668.27	44883.77
668.46	44979.62
668.66	44665.63
668.86	45096.76
669.05	44627.21
669.25	44684.38
669.44	44523.50
669.64	44507.36
669.84	44561.92
670.03	44956.85
670.23	44641.46
670.43	44691.10
670.62	44540.54
670.82	44453.21
671.01	44587.39
671.21	44296.42
671.41	44413.97
671.60	44492.94
671.80	44615.57
672.00	44250.05
672.19	44537.01
672.39	44420.93
672.58	44388.00
672.78	44340.90
672.98	44809.39
673.17	44665.22
673.37	43980.70
673.56	44238.01
673.76	44398.16
673.96	44443.46
674.15	44338.11
674.35	44455.34
674.54	44319.76
674.74	44251.28
674.94	44074.09
675.13	44158.79
675.33	43779.67
675.52	44395.05
675.72	44155.27
675.91	44113.82
676.11	44227.44
676.31	43714.71
676.50	43985.13
676.70	43872.57
676.89	44125.37
677.09	44303.79
677.28	44242.51
677.48	43702.51
677.68	44153.80
677.87	43970.46
678.07	43783.77
678.26	43964.73
678.46	44125.53
678.65	43852.42
678.85	44166.66
679.04	43634.35
679.24	43948.43
679.44	43707.83
679.63	43875.27
679.83	43801.46
680.02	43782.70
680.22	43670.48
680.41	43875.35
680.61	43601.58
680.80	43609.20
681.00	43837.02
681.19	43923.44
681.39	43762.80
681.59	43675.47
681.78	43564.88
681.98	44066.14
682.17	43499.59
682.37	43831.28
682.56	43424.64
682.76	43888.71
682.95	43678.59
683.15	43751.74
683.34	43652.21
683.54	43838.00
683.73	44002.90
683.93	43438.65
684.12	43816.37
684.32	43936.14
684.51	43381.55
684.71	43680.72
684.90	43541.04
685.10	43514.58
685.29	43279.97
685.49	43618.54
685.68	43716.35
685.88	43741.17
686.07	43525.97
686.27	44052.05
686.46	43804.33
686.66	43621.57
686.85	44048.61
687.05	43777.54
687.24	43735.60
687.44	43864.30
687.63	43823.83
687.83	43340.43
688.02	43837.67
688.22	44052.38
688.41	43695.46
688.61	43636.40
688.80	43910.01
689.00	43508.85
689.19	43467.32
689.39	44096.70
689.58	44060.82
689.77	43965.47
689.97	44221.95
690.16	43925.82
690.36	43596.34
690.55	43508.85
690.75	44285.19
690.94	43811.70
691.14	44127.83
691.33	43529.08
691.53	44023.46
691.72	43886.82
691.91	44014.04
692.11	44003.48
692.30	44116.61
692.50	44321.65
692.69	44017.57
692.89	44237.52
693.08	44156.83
693.28	44141.10
693.47	44492.20
693.66	44280.61
693.86	44229.24
694.05	44197.54
694.25	44300.10
694.44	44413.56
694.64	44311.65
694.83	44252.75
695.02	44287.49
695.22	44521.61
695.41	44386.36
695.61	44247.59
695.80	44354.33
695.99	44436.33
696.19	44575.27
696.38	44623.11
696.58	44286.83
696.77	44941.53
696.96	44806.44
697.16	44669.97
697.35	44781.54
697.55	44652.60
697.74	44477.05
697.93	45065.06
698.13	44612.46
698.32	45055.72
698.52	44785.14
698.71	44441.41
698.90	45313.93
699.10	44933.42
699.29	44875.66
699.49	45402.57
699.68	45130.43
699.87	45092.09
700.07	45443.12
700.26	45196.87
700.45	45259.45
700.65	44783.10
700.84	45342.77
701.04	45144.85
701.23	45481.45
701.42	45244.79
701.62	45299.35
701.81	45580.41
702.00	45346.04
702.20	45086.85
702.39	45335.47
702.58	45504.39
702.78	45399.62
702.97	45438.69
703.17	45383.15
703.36	45484.40
703.55	45349.16
703.75	45340.88
703.94	45769.23
704.13	45741.30
704.33	45681.42
704.52	46285.32
704.71	46054.15
704.91	46053.98
705.10	45660.12
705.29	45741.38
705.49	45689.77
705.68	45861.56
705.87	46006.88
706.07	45460.15
706.26	46081.26
706.45	45646.11
706.65	45589.91
706.84	46248.30
707.03	46657.97
707.23	46017.86
707.42	46054.56
707.61	46681.32
707.80	46295.48
708.00	46568.84
708.19	46487.33
708.38	46918.55
708.58	46111.82
708.77	46874.89
708.96	46225.52
709.16	46141.56
709.35	47084.93
709.54	46494.46
709.74	46439.41
709.93	46295.15
710.12	47034.88
710.31	47269.00
710.51	46796.58
710.70	46757.75
710.89	47145.22
711.09	46639.54
711.28	46727.44
711.47	47221.41
711.66	47091.73
711.86	47137.93
712.05	47347.32
712.24	47689.66
712.43	47302.02
712.63	46894.39
712.82	47681.05
713.01	47431.37
713.21	47207.81
713.40	47191.84
713.59	47626.25
713.78	47005.55
713.98	47600.04
714.17	47338.96
714.36	47445.62
714.55	46974.91
714.75	47227.06
714.94	47488.71
715.13	47860.95
715.32	47239.68
715.52	47559.08
715.71	47322.00
715.90	47530.57
716.09	47549.66
716.29	47854.89
716.48	47727.09
716.67	47284.24
716.86	47996.77
717.06	47926.97
717.25	48092.12
717.44	48204.92
717.63	48341.24
717.82	47805.41
718.02	48240.89
718.21	48564.14
718.40	48752.55
718.59	48574.38
718.79	48479.93
718.98	48395.14
719.17	48677.10
719.36	48694.47
719.55	48371.22
719.75	48255.96
719.94	48056.08
720.13	48445.52
720.32	48363.27
720.51	48303.47
720.71	48293.81
720.90	47883.64
721.09	48235.07
721.28	48022.57
721.47	48539.32
721.67	48297.41
721.86	48402.10
722.05	48494.92
722.24	47963.67
722.43	48598.87
722.63	48236.87
722.82	48390.47
723.01	48414.31
723.20	48094.42
723.39	48295.20
723.58	48671.12
723.78	48188.54
723.97	48848.40
724.16	48387.36
724.35	48497.78
724.54	48232.94
724.73	48607.15
724.93	48285.70
725.12	48714.05
725.31	47883.72
725.50	48513.18
725.69	48811.12
725.88	48524.00
726.08	48120.47
726.27	48759.51
726.46	48030.77
726.65	49040.17
726.84	48218.36
727.03	48526.54
727.23	48929.99
727.42	48631.80
727.61	48769.26
727.80	48462.89
727.99	48892.96
728.18	48857.24
728.37	48534.89
728.56	48196.81
728.76	48033.80
728.95	48468.46
729.14	48282.67
729.33	48254.16
729.52	48446.83
729.71	48756.16
729.90	48778.27
730.09	48347.95
730.29	48799.33
730.48	48014.05
730.67	48752.72
730.86	48300.52
731.05	48782.29
731.24	48468.87
731.43	48513.84
731.62	48221.23
731.81	48193.87
732.01	48723.47
732.20	48043.54
732.39	48670.06
732.58	48557.09
732.77	47915.26
732.96	48747.39
733.15	48976.84
733.34	48540.30
733.53	48487.71
733.72	48497.54
733.92	48539.48
734.11	48415.62
734.30	48513.18
734.49	48619.02
734.68	48346.40
734.87	48363.27
735.06	48375.89
735.25	48625.66
735.44	48402.27
735.63	48589.45
735.82	48459.61
736.01	48238.76
736.20	48316.09
736.40	48651.46
736.59	48470.26
736.78	48873.30
736.97	48332.55
737.16	48472.47
737.35	48507.53
737.54	48507.04
737.73	48102.53
737.92	48301.02
738.11	48485.09
738.30	48188.38
738.49	47949.26
738.68	48034.62
738.87	48192.88
739.06	47893.96
739.25	48181.99
739.44	48138.98
739.63	48025.36
739.82	47690.88
740.01	48287.09
740.20	47724.88
740.39	47894.04
740.59	47995.54
740.78	47891.50
740.97	47775.02
741.16	47537.70
741.35	47994.97
741.54	47874.55
741.73	47873.97
741.92	47828.92
742.11	47910.43
742.30	48075.33
742.49	47580.21
742.68	47890.52
742.87	47834.57
743.06	47156.28
743.25	47513.28
743.44	47000.64
743.63	47350.84
743.82	46858.67
744.01	46981.47
744.20	46555.24
744.39	47052.33
744.58	46853.10
744.77	46913.48
744.96	46603.74
745.15	47060.93
745.34	46712.12
745.53	46798.95
745.72	46380.84
745.91	46431.63
746.10	46311.70
746.29	46539.19
746.48	46587.36
746.67	46367.49
746.86	46346.27
747.04	46437.53
747.23	46068.40
747.42	46524.53
747.61	46061.44
747.80	46795.84
747.99	45868.85
748.18	46351.76
748.37	46206.93
748.56	45726.23
748.75	45873.93
748.94	45951.75
749.13	45721.64
749.32	45310.65
749.51	45443.12
749.70	45692.56
749.89	45403.96
750.08	45392.49
750.27	44848.06
750.46	45066.21
750.65	45536.59
750.84	44813.90
751.02	45096.52
751.21	44930.55
751.40	45020.66
751.59	45093.65
751.78	44760.16
751.97	44875.91
752.16	44554.63
752.35	44973.39
752.54	44465.42
752.73	44720.84
752.92	44277.33
753.11	44430.85
753.30	44761.06
753.49	44905.40
753.67	44692.82
753.86	44351.22
754.05	44707.90
754.24	44486.96
754.43	44518.99
754.62	44523.58
754.81	43941.95
755.00	44219.17
755.19	44045.75
755.38	43512.13
755.56	43862.41
755.75	44078.27
755.94	43460.19
756.13	43439.47
756.32	43660.07
756.51	43251.38
756.70	43418.33
756.89	43221.73
757.08	43209.27
757.26	43365.98
757.45	43140.79
757.64	43030.53
757.83	43403.67
758.02	42958.93
758.21	43040.68
758.40	43022.99
758.59	43023.56
758.77	42555.64
758.96	42683.68
759.15	42671.64
759.34	42138.10
759.53	42355.02
759.72	42218.38
759.91	41880.55
760.09	42145.23
760.28	42177.26
760.47	41513.56
760.66	42082.24
760.85	41560.49
761.04	42025.06
761.23	41784.62
761.41	41833.20
761.60	42006.30
761.79	41757.26
761.98	41366.84
762.17	42032.35
762.36	41439.75
762.54	41810.59
762.73	41603.34
762.92	41245.52
763.11	41506.10
763.30	41592.61
763.49	41307.78
763.67	41009.02
763.86	41068.25
764.05	41286.23
764.24	41000.09
764.43	41357.50
764.61	40608.60
764.80	40705.34
764.99	41193.74
765.18	40517.34
765.37	40793.98
765.55	40819.21
765.74	40319.02
765.93	40200.64
766.12	40475.15
766.31	40361.37
766.49	40387.09
766.68	40391.10
766.87	40132.73
767.06	39878.78
767.25	40058.51
767.43	40099.80
767.62	39823.16
767.81	40108.08
768.00	39687.59
768.19	39611.24
768.37	39799.32
768.56	39858.63
768.75	39862.32
768.94	39951.77
769.12	39559.79
769.31	39588.22
769.50	39606.73
769.69	39781.22
769.88	39243.26
770.06	39874.03
770.25	39273.49
770.44	39179.85
770.63	39402.75
770.81	39171.74
771.00	38921.15
771.19	38966.37
771.38	38779.68
771.56	39085.24
771.75	38218.95
771.94	38766.33
772.13	38748.39
772.31	38518.93
772.50	38917.71
772.69	38596.51
772.88	39098.75
773.06	38343.46
773.25	38578.32
773.44	38505.42
773.62	38315.37
773.81	38342.97
774.00	38118.19
774.19	38315.28
774.37	37953.45
774.56	38287.02
774.75	37682.22
774.94	38104.51
775.12	37511.09
775.31	37816.89
775.50	37773.23
775.68	37623.40
775.87	37572.20
776.06	37374.86
776.25	37655.43
776.43	37256.16
776.62	37694.91
776.81	37203.56
776.99	37420.81
777.18	37326.61
777.37	37085.60
777.55	37306.86
777.74	37412.21
777.93	37372.56
778.12	37358.31
778.30	37129.59
778.49	37103.87
778.68	37231.83
778.86	36913.74
779.05	37058.08
779.24	37029.57
779.42	36667.98
779.61	36604.25
779.80	36630.71
779.98	36738.68
780.17	36793.07
780.36	36348.09
780.54	36748.59
780.73	35913.43
780.92	36570.17
781.10	36263.30
781.29	36274.11
781.48	36041.30
781.66	36299.26
781.85	36442.13
782.04	36175.07
782.22	36347.19
782.41	36063.58
782.60	36254.13
782.78	36145.67
782.97	36182.61
783.16	35732.71
783.34	35664.56
783.53	35801.28
783.71	35595.01
783.90	35703.22
784.09	35704.70
784.27	35651.29
784.46	35649.89
784.65	35697.65
784.83	35468.20
785.02	35463.69
785.20	35910.39
785.39	35150.11
785.58	35713.79
785.76	35476.31
785.95	35513.01
786.14	35616.55
786.32	35487.61
786.51	35398.65
786.69	35609.67
786.88	35452.63
787.07	35337.86
787.25	35357.20
787.44	35330.33
787.62	35333.77
787.81	35509.24
788.00	35591.89
788.18	35362.93
788.37	35246.93
788.55	35993.05
788.74	35434.61
788.93	35616.72
789.11	35767.77
789.30	35538.24
789.48	35233.17
789.67	35560.52
789.86	35435.51
790.04	35517.18
790.23	35535.45
790.41	35351.05
790.60	35637.44
790.78	35654.48
790.97	35266.43
791.16	35501.46
791.34	35951.03
791.53	35287.07
791.71	35729.85
791.90	35336.47
792.08	35509.57
792.27	35395.13
792.46	35500.80
792.64	35516.61
792.83	35447.96
793.01	35611.23
793.20	35631.87
793.38	35586.41
793.57	35669.72
793.75	35577.15
793.94	35666.60
794.12	36036.80
794.31	35554.21
794.50	35727.47
794.68	35750.98
794.87	35558.72
795.05	35978.63
795.24	35709.86
795.42	35685.94
795.61	36198.26
795.79	36157.13
795.98	35621.39
796.16	35893.36
796.35	36052.44
796.53	35756.39
796.72	36295.41
796.90	36215.21
797.09	36112.24
797.27	36093.97
797.46	35988.22
797.64	36277.72
797.83	36102.58
798.01	36395.76
798.20	36503.08
798.38	36223.32
798.57	36508.81
798.75	36436.89
798.94	35809.88
799.12	36771.03
799.31	36335.88
799.49	36215.54
799.68	36106.59
799.86	36119.78
800.05	36125.68
800.23	36124.37
800.42	36058.83
800.60	36536.58
800.79	35987.40
800.97	36348.58
801.16	36537.56
801.34	35979.45
801.53	36107.08
801.71	36249.37
801.90	35979.12
802.08	36493.90
802.27	36144.27
802.45	36120.76
802.64	36322.45
802.82	36475.96
803.00	35990.27
803.19	36175.73
803.37	36609.08
803.56	36309.50
803.74	36387.08
803.93	36590.32
804.11	36336.45
804.30	36270.76
804.48	36465.48
804.67	36517.58
804.85	36364.22
805.03	36575.98
805.22	36204.97
805.40	36026.31
805.59	36278.05
805.77	36353.08
805.96	36042.94
806.14	36172.86
806.32	36229.63
806.51	36636.44
806.69	36181.46
806.88	36189.33
807.06	36052.03
807.25	36246.02
807.43	36166.39
807.61	36208.99
807.80	36083.24
807.98	36392.98
808.17	36020.90
808.35	35943.33
808.53	36406.33
808.72	36075.46
808.90	36065.14
809.09	36272.23
809.27	36283.29
809.45	36022.21
809.64	36385.93
809.82	36145.50
810.01	36294.35
810.19	36454.34
810.37	36355.13
810.56	36370.53
810.74	36633.82
810.93	36247.74
811.11	36470.88
811.29	36223.98
811.48	36367.50
811.66	36285.25
811.84	36131.49
812.03	36036.22
812.21	36057.85
812.40	36332.77
812.58	36431.97
812.76	36184.66
812.95	36478.99
813.13	35897.37
813.31	36201.12
813.50	36169.42
813.68	36141.24
813.86	36249.87
814.05	36390.93
814.23	35931.12
814.42	36312.70
814.60	36229.71
814.78	36387.90
814.97	36402.48
815.15	36238.32
815.33	36306.47
815.52	36119.12
815.70	35953.98
815.88	36165.41
816.07	35943.65
816.25	36168.11
816.43	36279.11
816.62	35932.43
816.80	36316.71
816.98	36051.87
817.17	36113.39
817.35	36065.79
817.53	36089.88
817.72	36231.27
817.90	35882.13
818.08	36008.04
818.26	36165.08
818.45	35896.06
818.63	36120.43
818.81	36210.55
819.00	35871.89
819.18	36344.81
819.36	36284.11
819.55	36265.35
819.73	36058.26
819.91	36148.61
820.09	36098.15
820.28	36219.39
820.46	35867.80
820.64	36423.45
820.83	35897.62
821.01	35967.90
821.19	35948.98
821.38	36207.35
821.56	36174.66
821.74	36513.07
821.92	36263.14
822.11	36791.27
822.29	36142.88
822.47	36179.74
822.65	36347.19
822.84	36471.78
823.02	35944.39
823.20	36448.36
823.39	35973.80
823.57	36017.46
823.75	36130.59
823.93	35907.45
824.12	36275.02
824.30	36102.33
824.48	36189.25
824.66	36506.52
824.85	35804.88
825.03	36410.75
825.21	36428.94
825.39	36191.29
825.58	36391.91
825.76	36238.07
825.94	36428.69
826.12	36135.75
826.31	36030.73
826.49	36295.25
826.67	36348.09
826.85	36147.06
827.03	36306.14
827.22	36504.22
827.40	36310.90
827.58	36281.49
827.76	36453.93
827.95	36201.53
828.13	36375.04
828.31	36462.77
828.49	36513.32
828.67	36299.18
828.86	36198.67
829.04	36401.74
829.22	36224.55
829.40	36150.99
829.58	36271.82
829.77	36521.02
829.95	36668.31
830.13	36577.62
830.31	36562.39
830.49	36561.40
830.68	36576.23
830.86	36281.65
831.04	36253.55
831.22	36272.31
831.40	36355.21
831.59	36691.82
831.77	36413.70
831.95	36606.62
832.13	36360.29
832.31	36464.33
832.50	36471.05
832.68	36309.18
832.86	36441.72
833.04	36653.23
833.22	36140.18
833.40	36887.69
833.59	36468.10
833.77	36828.62
833.95	35866.57
834.13	37073.89
834.31	36586.96
834.49	36621.86
834.67	36662.16
834.86	36770.95
835.04	36572.63
835.22	36731.88
835.40	36652.09
835.58	36523.97
835.76	36599.33
835.95	36682.97
836.13	36416.08
836.31	36232.66
836.49	36764.89
836.67	36704.52
836.85	36621.12
837.03	36580.33
837.21	36763.58
837.40	36600.31
837.58	36270.51
837.76	36611.78
837.94	36707.38
838.12	37037.19
838.30	36847.05
838.48	36846.23
838.66	36785.12
838.85	36822.31
839.03	36848.45
839.21	36584.83
839.39	36636.11
839.57	36813.47
839.75	36610.80
839.93	36708.69
840.11	36782.91
840.29	36707.14
840.47	37040.22
840.66	36896.61
840.84	37161.46
841.02	36785.04
841.20	37135.16
841.38	36965.18
841.56	36973.70
841.74	37300.31
841.92	36958.38
842.10	36813.55
842.28	37063.32
842.46	36786.35
842.65	36646.60
842.83	36896.70
843.01	37063.89
843.19	36483.42
843.37	36865.65
843.55	36565.50
843.73	36947.90
843.91	36942.90
844.09	36919.22
844.27	37185.71
844.45	36847.46
844.63	36775.46
844.81	36934.38
844.99	36952.32
845.17	36924.22
845.35	37099.36
845.54	36906.94
845.72	36896.20
845.90	36830.59
846.08	36991.80
846.26	36623.66
846.44	37184.72
846.62	36777.10
846.80	36894.40
846.98	37008.60
847.16	36922.75
847.34	37102.07
847.52	37085.93
847.70	36966.00
847.88	37209.05
848.06	36912.42
848.24	36983.12
848.42	37105.02
848.60	36658.07
848.78	37027.27
848.96	36811.01
849.14	36825.10
849.32	37024.00
849.50	36821.17
849.68	37022.20
849.86	36992.79
850.04	36823.79
850.22	36600.72
850.40	36527.16
850.58	36824.03
850.76	37359.62
850.94	36217.26
851.12	36899.32
851.30	36703.12
851.48	37020.89
851.66	36649.30
851.84	36724.34
852.02	36776.28
852.20	37106.33
852.38	36848.20
852.56	37123.20
852.74	37219.37
852.92	37106.00
853.10	36927.58
853.28	37266.48
853.46	36605.88
853.64	37109.69
853.82	36766.69
854.00	36891.95
854.18	36593.84
854.36	36414.03
854.54	36737.20
854.72	36486.78
854.90	36255.68
855.07	36698.86
855.25	36631.44
855.43	36781.68
855.61	36784.63
855.79	36521.75
855.97	36684.04
856.15	36583.52
856.33	36363.24
856.51	36572.22
856.69	36104.71
856.87	36565.01
857.05	36375.20
857.23	36495.05
857.41	36158.04
857.59	36288.94
857.77	36463.43
857.94	36407.48
858.12	36740.81
858.30	36432.30
858.48	36500.62
858.66	36415.26
858.84	36789.46
859.02	36504.80
859.20	36393.72
859.38	36892.52
859.56	36641.03
859.74	36460.32
859.92	36546.74
860.09	36246.18
860.27	36655.45
860.45	36070.38
860.63	36152.79
860.81	36463.76
860.99	36183.76
861.17	35853.13
861.35	35467.21
861.53	35284.29
861.70	35197.37
861.88	36174.91
862.06	36244.95
862.24	35750.98
862.42	35824.30
862.60	36274.77
862.78	36315.40
862.96	36409.03
863.14	36021.72
863.31	36107.98
863.49	35796.45
863.67	35753.19
863.85	35608.85
864.03	35891.23
864.21	35879.59
864.39	36034.83
864.56	35704.29
864.74	35816.68
864.92	35626.79
865.10	35344.01
865.28	35583.29
865.46	35790.47
865.64	35068.19
865.81	35509.07
865.99	35084.74
866.17	35605.66
866.35	35306.82
866.53	35289.45
866.71	35297.64
866.88	35320.91
867.06	35109.64
867.24	35276.67
867.42	35082.20
867.60	35203.76
867.78	34992.33
867.95	35364.73
868.13	34972.02
868.31	35288.80
868.49	35260.29
868.67	34952.60
868.84	34920.73
869.02	35093.66
869.20	34444.46
869.38	35105.95
869.56	34816.53
869.73	34640.65
869.91	34943.18
870.09	34837.83
870.27	34548.99
870.45	34742.81
870.62	34392.60
870.80	34784.99
870.98	34754.93
871.16	34751.08
871.34	34767.14
871.51	35034.77
871.69	34659.74
871.87	34904.84
872.05	34836.03
872.23	34946.29
872.40	34691.53
872.58	34959.24
872.76	34693.98
872.94	34575.45
873.11	34724.95
873.29	34370.40
873.47	34635.17
873.65	34424.31
873.83	34492.46
874.00	34398.34
874.18	34653.02
874.36	34430.61
874.54	34492.14
874.71	34185.92
874.89	33937.63
875.07	34009.22
875.25	33797.38
875.42	33704.65
875.60	33645.10
875.78	33771.41
875.96	33304.40
876.13	33582.59
876.31	33025.71
876.49	32984.91
876.66	32768.32
876.84	33325.12
877.02	32979.83
877.20	33138.26
877.37	33334.46
877.55	33230.83
877.73	33079.77
877.91	33030.05
878.08	33391.56
878.26	33275.15
878.44	33249.92
878.61	33102.38
878.79	32953.29
878.97	33057.74
879.15	33446.20
879.32	33416.46
879.50	33218.95
879.68	33597.09
879.85	33110.90
880.03	33439.32
880.21	33136.22
880.38	33267.70
880.56	32970.17
880.74	33285.47
880.92	32864.33
881.09	33123.36
881.27	33054.54
881.45	33181.03
881.62	33028.82
881.80	32847.62
881.98	32678.86
882.15	32976.64
882.33	32621.19
882.51	32647.73
882.68	32454.82
882.86	32780.12
883.04	32343.24
883.21	32270.09
883.39	32539.93
883.57	32215.04
883.74	32199.80
883.92	32294.01
884.10	32265.01
884.27	32183.75
884.45	31965.43
884.63	32381.66
884.80	32264.52
884.98	32285.49
885.16	32297.04
885.33	32295.81
885.51	32400.01
885.69	32408.20
885.86	32458.34
886.04	32668.30
886.21	32349.88
886.39	32627.75
886.57	32045.80
886.74	32562.21
886.92	32481.03
887.10	32395.34
887.27	32238.14
887.45	32262.14
887.62	32196.03
887.80	32162.78
887.98	32649.86
888.15	32474.89
888.33	32339.64
888.51	32633.97
888.68	32244.69
888.86	32291.80
889.03	32058.98
889.21	32102.81
889.39	32230.60
889.56	32217.91
889.74	32152.45
889.91	32221.02
890.09	32210.29
890.27	32294.66
890.44	32201.52
890.62	32281.72
890.79	32299.99
890.97	32363.39
891.14	32264.36
891.32	32280.41
891.50	32160.89
891.67	32403.62
891.85	32338.00
892.02	32256.33
892.20	32445.64
892.38	32305.15
892.55	32012.86
892.73	32262.39
892.90	32123.86
893.08	32212.58
893.25	32231.01
893.43	32520.11
893.60	32203.41
893.78	32468.58
893.96	32256.08
894.13	32346.60
894.31	32608.91
894.48	32258.13
894.66	32378.96
894.83	32309.08
895.01	32352.99
895.18	32336.85
895.36	32343.32
895.53	32531.08
895.71	32276.07
895.89	32209.06
896.06	31904.81
896.24	32052.27
896.41	31896.70
896.59	31913.33
896.76	31410.52
896.94	31808.07
897.11	31836.66
897.29	32053.91
897.46	31720.25
897.64	31836.58
897.81	31966.25
897.99	31594.92
898.16	32241.17
898.34	31988.53
898.51	32011.14
898.69	31794.96
898.86	31922.10
899.04	31807.08
899.21	31570.83
899.39	31643.25
899.56	31373.24
899.74	31804.38
899.91	31357.10
900.09	31313.93
900.26	31517.17
900.44	31193.51
900.61	31242.01
900.79	31618.51
900.96	31260.52
901.14	31241.03
901.31	31068.67
901.49	31081.04
901.66	31366.36
901.84	31361.12
902.01	31221.12
902.19	31244.30
902.36	30900.82
902.54	30877.88
902.71	30934.08
902.88	30967.83
903.06	30398.25
903.23	31133.38
903.41	30691.35
903.58	30637.04
903.76	30466.98
903.93	30669.40
904.11	30773.60
904.28	30435.36
904.45	30374.82
904.63	30239.90
904.80	29883.63
904.98	30004.38
905.15	29715.86
905.33	29891.74
905.50	29711.11
905.68	29734.05
905.85	29515.49
906.02	29488.62
906.20	29647.13
906.37	29324.95
906.55	29195.92
906.72	29576.60
906.90	29204.77
907.07	29045.19
907.24	29369.43
907.42	29004.89
907.59	29025.70
907.77	28925.02
907.94	28962.29
908.11	29035.28
908.29	28931.24
908.46	28845.80
908.64	28657.55
908.81	28739.56
908.98	28497.49
909.16	28692.78
909.33	28503.96
909.51	28280.81
909.68	28351.51
909.85	28244.93
910.03	28204.05
910.20	27913.16
910.37	27852.62
910.55	27823.29
910.72	27807.89
910.90	27550.09
911.07	27622.76
911.24	27536.50
911.42	27915.29
911.59	27521.67
911.76	27665.44
911.94	27450.89
912.11	27337.60
912.29	27301.88
912.46	27138.29
912.63	27137.22
912.81	26789.56
912.98	26953.23
913.15	26644.24
913.33	26770.31
913.50	26668.65
913.67	26400.12
913.85	26387.42
914.02	26536.51
914.19	26413.47
914.37	26303.46
914.54	26411.34
914.71	26200.32
914.89	26236.28
915.06	26190.16
915.23	26072.94
915.41	25929.25
915.58	25865.52
915.75	25724.86
915.93	25730.76
916.10	25581.10
916.27	25552.10
916.45	25582.57
916.62	25341.57
916.79	25511.22
916.97	25368.76
917.14	25353.94
917.31	25173.63
917.49	25161.51
917.66	25185.10
917.83	24964.33
918.00	24896.34
918.18	24642.72
918.35	24362.80
918.52	24490.43
918.70	24124.74
918.87	24071.01
919.04	24157.10
919.21	23990.73
919.39	23788.80
919.56	23939.69
919.73	23726.86
919.91	23832.13
920.08	23737.02
920.25	23448.50
920.42	23796.25
920.60	23399.35
920.77	23315.06
920.94	23404.76
921.11	23064.96
921.29	23199.06
921.46	22880.48
921.63	23105.76
921.81	22903.42
921.98	22855.58
922.15	22778.57
922.32	22753.51
922.50	22579.51
922.67	22489.65
922.84	22388.80
923.01	22319.58
923.19	22209.89
923.36	22308.93
923.53	21957.75
923.70	22122.90
923.87	22073.99
924.05	22046.79
924.22	21844.13
924.39	21895.41
924.56	21697.57
924.74	21788.99
924.91	21808.57
925.08	21605.41
925.25	21579.04
925.43	21619.34
925.60	21371.37
925.77	21508.75
925.94	21418.15
926.11	21289.21
926.29	21140.12
926.46	21192.79
926.63	21111.28
926.80	21058.77
926.97	20860.86
927.15	20913.12
927.32	20729.79
927.49	20614.85
927.66	20679.57
927.83	20690.63
928.01	20494.51
928.18	20443.97
928.35	20261.87
928.52	20488.13
928.69	20193.79
928.87	20110.48
929.04	20078.04
929.21	20020.12
929.38	19867.84
929.55	19893.48
929.72	19576.78
929.90	19612.58
930.07	19555.48
930.24	19418.10
930.41	19390.17
930.58	19349.13
930.75	19476.84
930.93	19270.81
931.10	19268.27
931.27	19083.05
931.44	19133.03
931.61	18976.15
931.78	19125.32
931.95	18979.10
932.13	18802.48
932.30	18973.53
932.47	18630.78
932.64	18731.54
932.81	18670.10
932.98	18587.86
933.15	18662.89
933.33	18465.06
933.50	18586.71
933.67	18309.17
933.84	18350.29
934.01	18213.08
934.18	18113.14
934.35	18060.54
934.52	18102.65
934.70	18031.55
934.87	18013.85
935.04	17894.25
935.21	17922.51
935.38	17898.76
935.55	17799.47
935.72	17890.97
935.89	17725.91
936.06	17688.96
936.24	17483.26
936.41	17642.68
936.58	17369.07
936.75	17353.18
936.92	17286.99
937.09	17246.44
937.26	17089.07
937.43	17120.53
937.60	17190.40
937.77	16990.19
937.94	17022.96
938.12	17015.59
938.29	16878.54
938.46	16970.12
938.63	16707.66
938.80	16876.41
938.97	16761.15
939.14	16718.39
939.31	16639.58
939.48	16676.45
939.65	16516.13
939.82	16444.62
939.99	16452.48
940.16	16355.90
940.33	16284.55
940.50	16219.91
940.67	16238.43
940.85	16201.64
941.02	16172.40
941.19	16200.74
941.36	16093.10
941.53	16113.50
941.70	16028.14
941.87	15840.46
942.04	15874.30
942.21	15831.21
942.38	15836.61
942.55	15631.57
942.72	15707.35
942.89	15627.89
943.06	15561.70
943.23	15483.63
943.40	15483.22
943.57	15539.66
943.74	15504.76
943.91	15378.61
944.08	15371.40
944.25	15428.66
944.42	15207.72
944.59	15180.36
944.76	15201.17
944.93	15055.68
945.10	14992.52
945.27	14974.34
945.44	14797.88
945.61	14815.83
945.78	14780.11
945.95	14763.72
946.12	14615.53
946.29	14725.96
946.46	14652.15
946.63	14630.20
946.80	14631.92
946.97	14589.32
947.14	14520.59
947.31	14603.74
947.48	14469.80
947.65	14427.94
947.82	14406.72
947.99	14386.33
948.16	14226.01
948.33	14342.50
948.50	14106.33
948.67	14124.59
948.84	14054.06
949.01	13938.07
949.18	14018.67
949.35	14025.88
949.52	13863.36
949.68	13921.03
949.85	13939.70
950.02	13860.73
950.19	13898.17
950.36	13847.14
950.53	13864.75
950.70	13731.63
950.87	13745.64
951.04	13819.04
951.21	13659.54
951.38	13580.08
951.55	13573.36
951.72	13494.89
951.89	13445.57
952.06	13363.57
952.23	13336.70
952.39	13250.36
952.56	13123.63
952.73	13254.45
952.90	13106.59
953.07	13143.21
953.24	13005.91
953.41	12978.72
953.58	12894.50
953.75	13010.99
953.92	12893.44
954.09	12870.75
954.25	12805.46
954.42	12826.10
954.59	12786.29
954.76	12723.62
954.93	12686.92
955.10	12782.19
955.27	12617.37
955.44	12643.01
955.61	12569.78
955.77	12673.40
955.94	12533.65
956.11	12542.33
956.28	12561.99
956.45	12439.85
956.62	12470.25
956.79	12449.11
956.96	12365.64
957.12	12383.58
957.29	12340.57
957.46	12319.27
957.63	12302.48
957.80	12218.02
957.97	12219.08
958.14	12273.23
958.30	12063.60
958.47	12115.37
958.64	12042.14
958.81	12110.21
958.98	11945.31
959.15	11934.58
959.32	12030.34
959.48	11950.96
959.65	11819.97
959.82	11870.60
959.99	11762.71
960.16	11827.67
960.33	11796.79
960.49	11712.58
960.66	11658.35
960.83	11746.00
961.00	11649.75
961.17	11662.28
961.33	11599.70
961.50	11598.88
961.67	11591.42
961.84	11603.05
962.01	11530.15
962.18	11556.28
962.34	11413.66
962.51	11420.37
962.68	11346.07
962.85	11426.76
963.02	11244.58
963.18	11303.56
963.35	11258.18
963.52	11246.95
963.69	11276.44
963.86	11252.85
964.02	11123.17
964.19	11235.32
964.36	11162.66
964.53	11162.90
964.69	11058.95
964.86	11148.32
965.03	10983.01
965.20	11075.50
965.37	10887.90
965.53	10956.39
965.70	10884.79
965.87	10910.18
966.04	10847.68
966.20	10829.99
966.37	10797.71
966.54	10658.28
966.71	10810.65
966.87	10665.08
967.04	10684.66
967.21	10626.91
967.38	10596.11
967.54	10563.83
967.71	10538.11
967.88	10553.43
968.05	10526.15
968.21	10425.23
968.38	10377.71
968.55	10359.69
968.72	10326.35
968.88	10221.49
969.05	10284.82
969.22	10159.32
969.39	10106.64
969.55	10157.43
969.72	10059.70
969.89	10034.64
970.05	10135.73
970.22	10094.68
970.39	10016.37
970.56	10059.21
970.72	10007.69
970.89	10043.65
971.06	9948.38
971.22	9949.77
971.39	9929.86
971.56	9923.39
971.73	9798.30
971.89	9892.34
972.06	9822.96
972.23	9839.75
972.39	9715.65
972.56	9752.51
972.73	9653.14
972.89	9698.93
973.06	9715.07
973.23	9644.70
973.39	9623.98
973.56	9607.68
973.73	9611.94
973.89	9612.26
974.06	9458.42
974.23	9539.44
974.39	9501.76
974.56	9497.41
974.73	9441.22
974.89	9393.70
975.06	9402.55
975.23	9480.54
975.39	9335.38
975.56	9388.54
975.73	9358.73
975.89	9352.17
976.06	9330.14
976.23	9259.11
976.39	9272.71
976.56	9223.72
976.73	9232.65
976.89	9192.02
977.06	9147.29
977.23	9132.22
977.39	9102.16
977.56	9088.31
977.72	8988.62
977.89	9001.81
978.06	8996.40
978.22	8914.07
978.39	8896.13
978.56	8898.92
978.72	8828.55
978.89	8829.37
979.05	8824.29
979.22	8773.91
979.39	8778.66
979.55	8779.31
979.72	8699.53
979.88	8810.20
980.05	8701.41
980.22	8786.36
980.38	8671.35
980.55	8652.83
980.71	8653.65
980.88	8659.47
981.05	8648.57
981.21	8605.40
981.38	8618.26
981.54	8598.44
981.71	8517.26
981.88	8504.97
982.04	8552.97
982.21	8538.23
982.37	8513.32
982.54	8465.73
982.70	8474.25
982.87	8453.11
983.04	8355.30
983.20	8480.97
983.37	8372.59
983.53	8412.32
983.70	8337.77
983.86	8280.51
984.03	8301.56
984.20	8258.15
984.36	8263.64
984.53	8245.70
984.69	8179.26
984.86	8140.51
985.02	8176.72
985.19	8145.18
985.35	8138.14
985.52	8095.62
985.68	8102.01
985.85	8037.05
986.02	8033.77
986.18	8027.14
986.35	8027.63
986.51	8005.51
986.68	7966.60
986.84	7909.09
987.01	7920.15
987.17	7954.47
987.34	7920.40
987.50	7888.45
987.67	7818.00
987.83	7856.01
988.00	7820.78
988.16	7787.20
988.33	7785.15
988.49	7796.45
988.66	7708.06
988.82	7736.90
988.99	7723.55
989.15	7719.53
989.32	7707.82
989.48	7696.76
989.65	7668.33
989.81	7658.75
989.98	7617.05
990.14	7607.88
990.31	7587.40
990.47	7542.83
990.64	7585.84
990.80	7557.00
990.97	7516.21
991.13	7526.94
991.30	7483.61
991.46	7444.61
991.63	7447.73
991.79	7477.87
991.95	7404.55
992.12	7428.97
992.28	7355.81
992.45	7361.14
992.61	7325.83
992.78	7342.21
992.94	7253.82
993.11	7323.95
993.27	7278.40
993.44	7250.55
993.60	7236.29
993.76	7206.56
993.93	7215.16
994.09	7216.39
994.26	7184.85
994.42	7170.59
994.59	7175.67
994.75	7197.46
994.91	7139.22
995.08	7108.75
995.24	7105.71
995.41	7128.24
995.57	7075.57
995.74	7068.69
995.90	7025.68
996.06	7043.54
996.23	6976.61
996.39	6948.68
996.56	6943.11
996.72	6976.28
996.88	6934.34
997.05	6959.65
997.21	6872.66
997.38	6915.17
997.54	6876.42
997.70	6822.11
997.87	6855.70
998.03	6831.70
998.20	6739.87
998.36	6749.45
998.52	6721.84
998.69	6780.66
998.85	6698.17
999.02	6716.52
999.18	6688.58
999.34	6730.61
999.51	6712.91
999.67	6730.85
999.83	6705.05
1000.00	6705.05
1000.16	6677.69
1000.33	6671.30
1000.49	6635.01
1000.65	6656.55
1000.82	6621.90
1000.98	6561.86
1001.14	6567.59
1001.31	6564.07
1001.47	6535.48
1001.63	6522.86
1001.80	6495.34
1001.96	6443.97
1002.12	6415.47
1002.29	6465.03
1002.45	6421.61
1002.61	6422.51
1002.78	6392.28
1002.94	6381.96
1003.10	6371.80
1003.27	6362.47
1003.43	6353.13
1003.59	6364.43
1003.76	6335.51
1003.92	6314.46
1004.08	6331.42
1004.25	6313.31
1004.41	6306.51
1004.57	6285.22
1004.74	6241.39
1004.90	6271.37
1005.06	6244.99
1005.23	6259.25
1005.39	6256.05
1005.55	6237.87
1005.71	6261.62
1005.88	6202.56
1006.04	6191.83
1006.20	6192.57
1006.37	6109.34
1006.53	6082.79
1006.69	6099.75
1006.85	6106.22
1007.02	6036.92
1007.18	6051.17
1007.34	6067.48
1007.51	6037.41
1007.67	5971.63
1007.83	5980.31
1007.99	5927.39
1008.16	5958.77
1008.32	5916.17
1008.48	5968.19
1008.64	5895.12
1008.81	5925.35
1008.97	5868.25
1009.13	5894.46
1009.29	5880.05
1009.46	5896.43
1009.62	5880.13
1009.78	5829.42
1009.95	5833.43
1010.11	5805.99
1010.27	5786.66
1010.43	5797.23
1010.59	5807.06
1010.76	5773.22
1010.92	5772.73
1011.08	5776.09
1011.24	5744.39
1011.41	5781.01
1011.57	5702.61
1011.73	5728.50
1011.89	5649.85
1012.06	5719.89
1012.22	5644.12
1012.38	5660.42
1012.54	5641.91
1012.70	5623.07
1012.87	5577.27
1013.03	5599.47
1013.19	5584.32
1013.35	5580.63
1013.51	5539.76
1013.68	5548.44
1013.84	5495.44
1014.00	5525.09
1014.16	5477.99
1014.32	5493.47
1014.49	5497.49
1014.65	5480.53
1014.81	5454.15
1014.97	5477.66
1015.13	5446.70
1015.30	5435.47
1015.46	5428.84
1015.62	5405.57
1015.78	5402.21
1015.94	5376.08
1016.10	5381.41
1016.27	5355.27
1016.43	5321.03
1016.59	5357.81
1016.75	5323.33
1016.91	5341.35
1017.07	5298.91
1017.24	5296.54
1017.40	5239.85
1017.56	5278.93
1017.72	5240.01
1017.88	5261.97
1018.04	5238.29
1018.21	5232.89
1018.37	5226.58
1018.53	5199.22
1018.69	5207.49
1018.85	5190.54
1019.01	5178.74
1019.17	5192.01
1019.34	5181.85
1019.50	5184.47
1019.66	5148.18
1019.82	5169.16
1019.98	5098.79
1020.14	5122.22
1020.30	5076.67
1020.46	5125.33
1020.63	5050.54
1020.79	5049.88
1020.95	5086.74
1021.11	5056.68
1021.27	5022.11
1021.43	5039.31
1021.59	5029.32
1021.75	5046.28
1021.91	5012.77
1022.07	4978.61
1022.24	4951.17
1022.40	4980.99
1022.56	4923.32
1022.72	4936.18
1022.88	4930.20
1023.04	4948.38
1023.20	4892.27
1023.36	4917.01
1023.52	4887.27
1023.68	4880.96
1023.84	4852.62
1024.01	4880.72
1024.17	4857.70
1024.33	4833.62
1024.49	4841.32
1024.65	4803.80
1024.81	4793.64
1024.97	4813.30
1025.13	4798.96
1025.29	4765.13
1025.45	4758.00
1025.61	4775.62
1025.77	4730.73
1025.93	4729.17
1026.09	4742.85
1026.25	4752.68
1026.41	4733.59
1026.57	4729.50
1026.73	4738.67
1026.90	4699.60
1027.06	4700.01
1027.22	4696.24
1027.38	4701.32
1027.54	4713.44
1027.70	4693.29
1027.86	4702.79
1028.02	4662.90
1028.18	4657.24
1028.34	4646.76
1028.50	4673.14
1028.66	4630.46
1028.82	4633.49
1028.98	4595.23
1029.14	4582.29
1029.30	4595.81
1029.46	4598.26
1029.62	4552.55
1029.78	4554.35
1029.94	4545.67
1030.10	4559.02
1030.26	4514.62
1030.42	4515.61
1030.58	4531.42
1030.74	4547.80
1030.90	4492.83
1031.06	4486.69
1031.22	4513.72
1031.38	4493.08
1031.54	4499.55
1031.70	4478.17
1031.86	4450.97
1032.02	4444.99
1032.18	4415.67
1032.34	4422.63
1032.50	4417.14
1032.66	4416.08
1032.82	4391.50
1032.98	4393.71
1033.14	4373.89
1033.30	4376.75
1033.45	4337.43
1033.61	4372.41
1033.77	4312.61
1033.93	4359.14
1034.09	4322.44
1034.25	4356.36
1034.41	4303.85
1034.57	4329.57
1034.73	4307.29
1034.89	4306.06
1035.05	4279.68
1035.21	4308.93
1035.37	4296.47
1035.53	4287.96
1035.69	4241.18
1035.85	4276.32
1036.01	4228.32
1036.16	4245.11
1036.32	4231.10
1036.48	4225.37
1036.64	4192.68
1036.80	4195.55
1036.96	4195.80
1037.12	4192.60
1037.28	4190.55
1037.44	4197.11
1037.60	4181.95
1037.76	4174.74
1037.91	4179.41
1038.07	4152.71
1038.23	4144.19
1038.39	4121.41
1038.55	4126.98
1038.71	4145.09
1038.87	4107.65
1039.03	4135.34
1039.19	4085.21
1039.35	4119.20
1039.50	4110.52
1039.66	4112.98
1039.82	4077.75
1039.98	4068.74
1040.14	4074.97
1040.30	4057.93
1040.46	4062.43
1040.62	4062.43
1040.77	4043.59
1040.93	4072.18
1041.09	4042.53
1041.25	4037.20
1041.41	4025.65
1041.57	4004.93
1041.73	4004.93
1041.88	4004.93

