SpectraSuite Data File
++++++++++++++++++++++++++++++++++++
Date: Tue Sep 20 12:34:25 EDT 2022
User: Laboratoire
Dark Spectrum Present: No
Reference Spectrum Present: No
Number of Sampled Component Spectra: 1
Spectrometers: FLMT00174
Integration Time (usec): 2000 (FLMT00174)
Spectra Averaged: 25 (FLMT00174)
Boxcar Smoothing: 0 (FLMT00174)
Correct for Electrical Dark: No (FLMT00174)
Strobe/Lamp Enabled: No (FLMT00174)
Correct for Detector Non-linearity: No (FLMT00174)
Correct for Stray Light: No (FLMT00174)
Number of Pixels in Processed Spectrum: 3648
>>>>>Begin Processed Spectral Data<<<<<
345.74	3164.28
345.96	3164.28
346.18	3164.28
346.39	3192.13
346.61	3188.85
346.83	3201.22
347.05	3196.22
347.27	3193.77
347.49	3179.10
347.71	3200.32
347.93	3192.21
348.15	3193.27
348.36	3199.91
348.58	3198.52
348.80	3195.00
349.02	3193.11
349.24	3197.62
349.46	3196.80
349.68	3201.06
349.90	3206.30
350.11	3190.98
350.33	3194.75
350.55	3187.38
350.77	3213.43
350.99	3178.94
351.21	3195.81
351.43	3198.52
351.65	3196.22
351.86	3188.77
352.08	3198.76
352.30	3201.71
352.52	3210.23
352.74	3210.15
352.96	3195.40
353.18	3187.70
353.39	3199.34
353.61	3187.87
353.83	3208.18
354.05	3177.55
354.27	3181.40
354.49	3190.82
354.70	3207.61
354.92	3174.11
355.14	3213.92
355.36	3190.00
355.58	3211.87
355.80	3171.81
356.02	3207.69
356.23	3190.41
356.45	3207.04
356.67	3200.40
356.89	3195.73
357.11	3195.40
357.33	3183.85
357.54	3199.83
357.76	3202.29
357.98	3205.73
358.20	3203.35
358.42	3180.41
358.63	3200.40
358.85	3206.30
359.07	3215.72
359.29	3193.36
359.51	3200.65
359.73	3194.91
359.94	3197.94
360.16	3194.42
360.38	3197.21
360.60	3194.50
360.82	3219.57
361.03	3185.66
361.25	3201.88
361.47	3195.08
361.69	3211.95
361.91	3200.57
362.12	3198.27
362.34	3184.51
362.56	3208.43
362.78	3190.98
363.00	3184.10
363.21	3196.72
363.43	3207.69
363.65	3183.03
363.87	3191.80
364.09	3190.74
364.30	3194.91
364.52	3188.44
364.74	3200.07
364.96	3171.40
365.17	3203.84
365.39	3199.58
365.61	3198.03
365.83	3191.31
366.05	3186.80
366.26	3190.00
366.48	3186.89
366.70	3187.29
366.92	3210.15
367.13	3189.34
367.35	3200.89
367.57	3186.89
367.79	3203.43
368.01	3183.77
368.22	3190.24
368.44	3198.68
368.66	3221.21
368.88	3197.70
369.09	3207.20
369.31	3189.18
369.53	3196.47
369.75	3205.56
369.96	3212.69
370.18	3190.08
370.40	3210.48
370.62	3201.63
370.83	3187.29
371.05	3203.02
371.27	3204.83
371.49	3188.77
371.70	3209.41
371.92	3197.62
372.14	3201.38
372.36	3189.59
372.57	3200.07
372.79	3196.88
373.01	3217.36
373.22	3188.61
373.44	3220.47
373.66	3184.10
373.88	3188.44
374.09	3193.27
374.31	3214.57
374.53	3190.74
374.75	3211.13
374.96	3189.10
375.18	3211.87
375.40	3200.65
375.61	3198.60
375.83	3196.39
376.05	3215.39
376.27	3177.96
376.48	3203.19
376.70	3180.58
376.92	3195.32
377.13	3189.42
377.35	3198.27
377.57	3197.53
377.79	3211.46
378.00	3187.46
378.22	3205.97
378.44	3180.58
378.65	3206.46
378.87	3184.18
379.09	3204.83
379.30	3188.61
379.52	3193.52
379.74	3190.65
379.96	3201.38
380.17	3201.71
380.39	3207.28
380.61	3196.06
380.82	3190.90
381.04	3187.13
381.26	3199.34
381.47	3195.40
381.69	3196.63
381.91	3206.96
382.12	3195.49
382.34	3201.30
382.56	3207.69
382.77	3192.21
382.99	3221.45
383.21	3186.89
383.42	3210.89
383.64	3191.88
383.86	3211.54
384.07	3197.29
384.29	3195.81
384.51	3193.93
384.72	3206.30
384.94	3187.29
385.16	3208.02
385.37	3191.64
385.59	3199.09
385.81	3189.10
386.02	3203.68
386.24	3204.09
386.46	3202.70
386.67	3186.23
386.89	3198.68
387.11	3188.85
387.32	3203.76
387.54	3193.03
387.76	3195.32
387.97	3198.27
388.19	3214.82
388.40	3210.48
388.62	3208.02
388.84	3198.76
389.05	3183.85
389.27	3198.03
389.49	3193.36
389.70	3209.74
389.92	3207.12
390.14	3188.85
390.35	3207.94
390.57	3207.86
390.78	3193.44
391.00	3190.65
391.22	3196.14
391.43	3190.98
391.65	3199.42
391.86	3183.77
392.08	3213.18
392.30	3195.73
392.51	3215.72
392.73	3194.09
392.95	3199.58
393.16	3201.14
393.38	3211.13
393.59	3209.09
393.81	3215.39
394.03	3217.44
394.24	3210.40
394.46	3214.33
394.67	3198.03
394.89	3185.74
395.11	3208.76
395.32	3206.71
395.54	3210.89
395.75	3191.31
395.97	3189.34
396.19	3211.22
396.40	3207.53
396.62	3200.16
396.83	3216.38
397.05	3188.52
397.26	3214.33
397.48	3199.83
397.70	3210.97
397.91	3189.92
398.13	3187.62
398.34	3214.16
398.56	3198.60
398.78	3209.49
398.99	3190.57
399.21	3200.65
399.42	3227.19
399.64	3200.65
399.85	3204.83
400.07	3206.96
400.29	3199.83
400.50	3206.38
400.72	3205.32
400.93	3185.00
401.15	3219.08
401.36	3207.28
401.58	3215.72
401.79	3198.93
402.01	3204.09
402.23	3204.01
402.44	3214.33
402.66	3199.09
402.87	3202.94
403.09	3223.42
403.30	3205.81
403.52	3207.53
403.73	3209.25
403.95	3203.76
404.16	3214.49
404.38	3208.18
404.60	3219.00
404.81	3205.07
405.03	3206.46
405.24	3209.99
405.46	3222.19
405.67	3221.13
405.89	3211.79
406.10	3188.93
406.32	3221.95
406.53	3221.37
406.75	3221.95
406.96	3205.73
407.18	3223.18
407.39	3196.39
407.61	3221.62
407.82	3211.13
408.04	3222.19
408.25	3216.13
408.47	3219.00
408.68	3209.99
408.90	3235.71
409.12	3215.56
409.33	3222.68
409.55	3228.01
409.76	3232.10
409.98	3211.71
410.19	3233.25
410.41	3236.86
410.62	3242.51
410.84	3220.06
411.05	3251.03
411.27	3234.56
411.48	3239.31
411.70	3235.79
411.91	3235.30
412.12	3231.86
412.34	3240.71
412.55	3243.25
412.77	3249.63
412.98	3245.21
413.20	3253.32
413.41	3247.34
413.63	3270.61
413.84	3233.82
414.06	3266.18
414.27	3255.94
414.49	3278.55
414.70	3243.16
414.92	3279.54
415.13	3265.45
415.35	3275.60
415.56	3266.02
415.78	3293.05
415.99	3267.00
416.21	3291.25
416.42	3281.01
416.63	3302.88
416.85	3279.29
417.06	3289.86
417.28	3274.87
417.49	3309.76
417.71	3291.74
417.92	3302.06
418.14	3289.53
418.35	3333.11
418.57	3300.18
418.78	3326.88
418.99	3299.77
419.21	3331.64
419.42	3323.53
419.64	3351.95
419.85	3324.10
420.07	3378.00
420.28	3332.05
420.50	3346.95
420.71	3358.42
420.92	3372.27
421.14	3375.63
421.35	3400.94
421.57	3373.91
421.78	3411.26
422.00	3384.72
422.21	3441.73
422.42	3411.18
422.64	3423.38
422.85	3414.13
423.07	3472.45
423.28	3414.46
423.50	3464.84
423.71	3468.19
423.92	3496.78
424.14	3452.14
424.35	3498.67
424.57	3496.62
424.78	3557.65
424.99	3519.80
425.21	3599.43
425.42	3533.57
425.64	3575.18
425.85	3545.61
426.06	3576.98
426.28	3560.19
426.49	3704.45
426.71	3590.99
426.92	3663.41
427.13	3635.47
427.35	3750.40
427.56	3669.06
427.78	3719.28
427.99	3711.98
428.20	3797.67
428.42	3756.79
428.63	3868.78
428.84	3733.45
429.06	3814.14
429.27	3804.47
429.49	3896.55
429.70	3934.39
429.91	3944.47
430.13	3919.48
430.34	4011.07
430.56	3962.33
430.77	4075.95
430.98	3946.27
431.20	4070.79
431.41	4058.99
431.62	4200.30
431.84	4051.21
432.05	4226.19
432.26	4126.98
432.48	4183.84
432.69	4165.00
432.91	4274.36
433.12	4246.83
433.33	4336.78
433.55	4348.90
433.76	4458.18
433.97	4307.21
434.19	4443.03
434.40	4422.79
434.61	4609.98
434.83	4505.37
435.04	4526.17
435.25	4602.20
435.47	4665.93
435.68	4462.20
435.89	4816.99
436.11	4687.96
436.32	4814.28
436.53	4690.91
436.75	4810.19
436.96	4788.23
437.17	4804.13
437.39	4747.11
437.60	4970.58
437.81	4847.05
438.03	5041.53
438.24	4974.27
438.45	5135.49
438.67	5008.27
438.88	5206.35
439.09	5239.36
439.31	5249.19
439.52	5191.93
439.73	5318.98
439.94	5156.54
440.16	5387.14
440.37	5204.05
440.58	5490.52
440.80	5418.84
441.01	5408.28
441.22	5673.28
441.44	5706.46
441.65	5536.40
441.86	5684.83
442.08	5628.31
442.29	5695.81
442.50	5667.14
442.71	5735.30
442.93	5792.23
443.14	5850.06
443.35	5902.08
443.57	5864.48
443.78	5905.20
443.99	6076.81
444.20	5831.47
444.42	6100.82
444.63	6051.91
444.84	6175.44
445.06	6231.81
445.27	6185.44
445.48	6101.88
445.69	6295.37
445.91	6252.94
446.12	6247.86
446.33	6331.83
446.54	6519.34
446.76	6314.95
446.97	6541.70
447.18	6410.96
447.39	6634.76
447.61	6543.10
447.82	6799.50
448.03	6502.22
448.25	6779.60
448.46	6799.34
448.67	6920.09
448.88	6707.26
449.10	7026.01
449.31	6959.65
449.52	6945.81
449.73	6900.26
449.95	7287.49
450.16	6987.01
450.37	7363.84
450.58	7452.64
450.79	7165.27
451.01	7240.55
451.22	7215.90
451.43	7258.25
451.64	7537.84
451.86	7378.83
452.07	7548.81
452.28	7556.27
452.49	7736.32
452.71	7568.31
452.92	7606.57
453.13	7726.41
453.34	7782.20
453.55	7938.83
453.77	8090.21
453.98	7943.42
454.19	7953.82
454.40	7986.50
454.62	8214.32
454.83	7922.12
455.04	8384.63
455.25	8062.28
455.46	8726.80
455.68	8308.77
455.89	8420.26
456.10	8436.57
456.31	8541.26
456.52	8599.09
456.74	8564.85
456.95	8862.71
457.16	8824.78
457.37	8799.06
457.58	8911.45
457.80	8829.45
458.01	8867.79
458.22	9407.71
458.43	9101.58
458.64	9194.72
458.86	8997.87
459.07	9209.31
459.28	9172.85
459.49	9308.84
459.70	9865.48
459.91	9572.70
460.13	9665.51
460.34	9671.98
460.55	9649.54
460.76	9894.06
460.97	9834.02
461.19	9843.77
461.40	10348.63
461.61	9965.74
461.82	10124.09
462.03	10208.63
462.24	10357.23
462.46	10236.32
462.67	10329.22
462.88	10406.30
463.09	10473.64
463.30	10590.87
463.51	10547.45
463.72	10882.00
463.94	11000.95
464.15	10897.49
464.36	10786.41
464.57	11234.26
464.78	11149.14
464.99	11210.91
465.20	11221.56
465.42	11391.46
465.63	11444.21
465.84	11365.16
466.05	11693.16
466.26	11684.07
466.47	11935.40
466.68	11734.45
466.90	12180.74
467.11	11928.68
467.32	12264.88
467.53	12342.62
467.74	12160.10
467.95	12308.13
468.16	12603.94
468.37	12688.80
468.59	12730.34
468.80	12867.39
469.01	12769.25
469.22	12960.86
469.43	13407.81
469.64	13048.84
469.85	13373.97
470.06	13406.17
470.28	13749.24
470.49	13245.03
470.70	13786.84
470.91	14121.97
471.12	13817.15
471.33	14342.66
471.54	14128.94
471.75	14151.14
471.96	14751.03
472.17	14527.63
472.39	15062.15
472.60	14627.90
472.81	15196.58
473.02	14921.83
473.23	15401.54
473.44	15415.47
473.65	15334.21
473.86	15446.44
474.07	15675.23
474.28	15681.30
474.49	16343.36
474.71	16076.88
474.92	16466.98
475.13	16224.01
475.34	16470.01
475.55	16457.15
475.76	16684.06
475.97	17030.01
476.18	17156.82
476.39	17354.24
476.60	17642.76
476.81	17655.21
477.02	18054.16
477.23	17889.99
477.44	17983.30
477.65	18159.34
477.87	18537.39
478.08	18655.03
478.29	18709.26
478.50	19144.90
478.71	18955.10
478.92	19234.93
479.13	19350.44
479.34	19467.09
479.55	19684.01
479.76	19787.06
479.97	19885.20
480.18	20410.71
480.39	20102.70
480.60	20642.54
480.81	20740.93
481.02	20770.58
481.23	20933.85
481.44	21283.97
481.65	21477.46
481.86	21798.09
482.07	21352.70
482.28	22345.63
482.49	22171.23
482.71	22147.55
482.92	22583.44
483.13	22807.49
483.34	22617.68
483.55	22785.62
483.76	22909.15
483.97	23254.11
484.18	23273.12
484.39	23576.05
484.60	23569.34
484.81	23935.59
485.02	23863.67
485.23	24257.37
485.44	24465.77
485.65	24710.71
485.86	24629.36
486.07	25050.67
486.28	25117.68
486.49	25210.66
486.70	25539.40
486.91	25686.28
487.12	25698.81
487.33	25526.78
487.54	26282.24
487.75	26345.48
487.96	26494.24
488.17	26416.50
488.38	26889.42
488.59	26819.63
488.80	27053.09
489.01	26976.58
489.22	27480.30
489.43	27421.73
489.64	27245.44
489.85	28024.65
490.06	27625.62
490.26	27993.77
490.47	28009.74
490.68	28505.60
490.89	28897.17
491.10	28311.45
491.31	28955.49
491.52	29083.53
491.73	29071.57
491.94	28974.01
492.15	29429.72
492.36	29542.19
492.57	29626.24
492.78	29486.74
492.99	29727.99
493.20	30025.02
493.41	30109.15
493.62	30176.74
493.83	30305.60
494.04	30493.44
494.25	30812.59
494.46	30760.24
494.67	30621.80
494.88	31039.59
495.08	31237.75
495.29	31292.80
495.50	31688.79
495.71	31449.18
495.92	31924.88
496.13	31832.56
496.34	31673.15
496.55	31938.81
496.76	32536.98
496.97	31928.24
497.18	32501.76
497.39	32288.44
497.60	32992.29
497.81	32356.92
498.02	32765.53
498.22	32450.64
498.43	33117.21
498.64	33052.17
498.85	33061.59
499.06	33155.30
499.27	33735.70
499.48	32906.19
499.69	33391.97
499.90	33587.26
500.11	33860.38
500.32	34245.89
500.52	33807.87
500.73	34505.73
500.94	34579.05
501.15	34460.11
501.36	34590.93
501.57	34347.06
501.78	34624.93
501.99	34974.72
502.20	34936.14
502.41	34961.61
502.61	34852.17
502.82	35202.78
503.03	34911.23
503.24	35257.42
503.45	35187.22
503.66	35544.30
503.87	35593.53
504.08	35841.50
504.28	35670.95
504.49	35680.86
504.70	36027.87
504.91	36184.82
505.12	35924.40
505.33	36412.07
505.54	36490.13
505.75	36516.27
505.95	36776.28
506.16	36617.19
506.37	36378.64
506.58	37072.58
506.79	36445.90
507.00	37199.14
507.21	36842.14
507.41	36832.72
507.62	36991.48
507.83	37548.85
508.04	37175.71
508.25	37539.59
508.46	37373.05
508.67	37977.12
508.87	37604.97
509.08	38039.46
509.29	37901.92
509.50	38090.66
509.71	38189.46
509.92	38357.47
510.12	38013.66
510.33	38305.13
510.54	38194.62
510.75	38368.86
510.96	38722.67
511.17	38927.38
511.37	38887.73
511.58	39043.95
511.79	39007.01
512.00	38851.77
512.21	39371.38
512.42	39287.00
512.62	39458.05
512.83	39681.69
513.04	39426.18
513.25	39760.33
513.46	39018.39
513.66	40043.77
513.87	39723.88
514.08	40131.42
514.29	39826.36
514.50	39958.74
514.71	40346.13
514.91	40149.85
515.12	40133.14
515.33	40519.14
515.54	40431.41
515.75	40806.11
515.95	40588.12
516.16	40498.50
516.37	41047.03
516.58	41169.82
516.78	40948.97
516.99	41243.14
517.20	41041.70
517.41	41065.38
517.62	41232.74
517.82	41199.89
518.03	41781.27
518.24	42141.87
518.45	41500.45
518.66	41903.65
518.86	41566.23
519.07	42169.89
519.28	41325.96
519.49	42159.08
519.69	42245.42
519.90	42351.34
520.11	42414.83
520.32	42278.18
520.52	42697.04
520.73	42306.04
520.94	42858.01
521.15	42739.55
521.36	42378.45
521.56	43306.67
521.77	42538.60
521.98	43177.98
522.19	42848.01
522.39	43307.08
522.60	43025.12
522.81	43100.57
523.02	43003.99
523.22	43562.59
523.43	43702.59
523.64	43529.33
523.84	43655.65
524.05	44010.28
524.26	44065.57
524.47	43716.02
524.67	43906.98
524.88	44095.72
525.09	44547.74
525.30	44188.78
525.50	44197.95
525.71	44383.82
525.92	44349.34
526.13	44807.84
526.33	44578.95
526.54	44200.41
526.75	44757.37
526.95	45069.81
527.16	44339.67
527.37	44991.50
527.58	45193.92
527.78	44980.68
527.99	45434.51
528.20	45575.91
528.40	45180.81
528.61	45031.06
528.82	45456.22
529.03	45384.54
529.23	45268.06
529.44	45650.53
529.65	45800.04
529.85	45800.45
530.06	45753.10
530.27	45875.89
530.47	45418.21
530.68	46462.43
530.89	45655.45
531.09	46281.80
531.30	46151.88
531.51	45761.45
531.72	46488.40
531.92	46351.92
532.13	46603.33
532.34	46381.99
532.54	46496.59
532.75	46694.59
532.96	46576.63
533.16	46888.41
533.37	47173.49
533.58	46853.02
533.78	47317.83
533.99	47339.86
534.20	46825.41
534.40	47229.35
534.61	47412.77
534.82	47572.68
535.02	47533.03
535.23	47487.07
535.44	47844.89
535.64	47499.77
535.85	47801.97
536.06	47705.88
536.26	47705.71
536.47	47767.48
536.68	48512.86
536.88	47641.90
537.09	48375.64
537.29	47813.35
537.50	48736.74
537.71	48046.58
537.91	48440.85
538.12	48706.10
538.33	48278.98
538.53	48570.20
538.74	48609.36
538.95	48633.36
539.15	48490.49
539.36	48828.33
539.56	49018.46
539.77	48653.43
539.98	48815.79
540.18	49062.78
540.39	48739.03
540.60	48982.58
540.80	49249.55
541.01	49095.63
541.21	49142.32
541.42	49263.23
541.63	49199.42
541.83	49477.53
542.04	49438.38
542.25	49338.76
542.45	49671.11
542.66	49594.43
542.86	49904.17
543.07	48835.94
543.28	49880.08
543.48	49823.31
543.69	50051.62
543.89	49766.21
544.10	50356.68
544.31	50075.21
544.51	49953.97
544.72	50115.84
544.92	50028.85
545.13	50411.98
545.33	50331.86
545.54	50000.83
545.75	50419.68
545.95	50068.00
546.16	50179.58
546.36	50807.81
546.57	49872.46
546.78	48941.78
546.98	49865.99
547.19	48863.80
547.39	50189.49
547.60	50587.37
547.80	51257.63
548.01	51117.38
548.22	50761.77
548.42	50832.22
548.63	51222.89
548.83	50807.48
549.04	51209.70
549.24	50748.99
549.45	51054.71
549.65	51482.41
549.86	50691.57
550.07	50881.87
550.27	51386.32
550.48	51436.05
550.68	51426.95
550.89	51325.05
551.09	51676.56
551.30	51413.68
551.50	51850.88
551.71	51462.92
551.91	51526.48
552.12	51745.45
552.33	52034.95
552.53	51613.32
552.74	52275.88
552.94	52318.64
553.15	51919.45
553.35	52173.23
553.56	51714.98
553.76	52303.24
553.97	51802.63
554.17	52007.18
554.38	52717.58
554.58	51998.42
554.79	52665.48
554.99	52200.27
555.20	52351.82
555.40	52969.97
555.61	52479.28
555.81	52212.55
556.02	53352.45
556.22	53028.79
556.43	52690.06
556.63	52782.63
556.84	52564.72
557.04	53146.59
557.25	52453.48
557.45	52951.87
557.66	52937.13
557.86	52714.47
558.07	53394.89
558.27	52771.65
558.48	53026.66
558.68	53007.90
558.89	53432.49
559.09	53476.40
559.30	53113.33
559.50	53540.54
559.71	52909.35
559.91	53609.68
560.12	53207.37
560.32	53273.07
560.53	53644.74
560.73	53073.52
560.94	53770.57
561.14	53177.88
561.35	53920.15
561.55	53345.41
561.76	53800.47
561.96	53122.02
562.17	53711.58
562.37	53986.09
562.57	53627.62
562.78	53593.54
562.98	53946.86
563.19	53923.18
563.39	54033.53
563.60	54228.08
563.80	53752.87
564.01	54331.38
564.21	54009.03
564.42	53973.56
564.62	54203.92
564.82	54455.82
565.03	54126.99
565.23	54211.04
565.44	54377.09
565.64	54009.28
565.85	54494.73
566.05	54198.76
566.25	54614.25
566.46	54102.01
566.66	54453.52
566.87	54463.03
567.07	54436.65
567.28	54630.71
567.48	54873.85
567.68	54120.77
567.89	55249.36
568.09	54657.25
568.30	54623.18
568.50	55105.76
568.71	54797.09
568.91	54943.72
569.11	54655.86
569.32	54665.86
569.52	54962.48
569.73	54301.56
569.93	54987.55
570.13	54781.77
570.34	54799.63
570.54	55223.48
570.75	54966.25
570.95	55005.98
571.15	54918.49
571.36	55456.86
571.56	54917.27
571.77	54872.54
571.97	54461.47
572.17	55434.91
572.38	55109.20
572.58	55478.65
572.79	55244.28
572.99	55435.97
573.19	55340.95
573.40	55297.70
573.60	55531.57
573.81	55356.76
574.01	55536.08
574.21	55390.10
574.42	55388.30
574.62	55196.36
574.82	55761.44
575.03	55198.98
575.23	55969.68
575.43	55528.71
575.64	55479.23
575.84	55856.55
576.05	55329.64
576.25	55619.64
576.45	55473.49
576.66	56107.05
576.86	55712.70
577.06	56142.11
577.27	55910.12
577.47	55983.03
577.67	55817.88
577.88	55322.19
578.08	56152.44
578.28	56202.90
578.49	56051.59
578.69	56235.99
578.89	55811.49
579.10	55970.08
579.30	56752.74
579.50	56054.62
579.71	55754.07
579.91	56394.59
580.11	56029.89
580.32	55916.67
580.52	55997.04
580.72	56666.31
580.93	56162.51
581.13	56030.13
581.33	56700.23
581.54	56099.60
581.74	56269.50
581.94	56301.94
582.15	56759.37
582.35	56343.96
582.55	56508.86
582.76	56229.36
582.96	56762.32
583.16	56579.64
583.37	56978.42
583.57	56490.11
583.77	57030.36
583.97	55950.67
584.18	57150.86
584.38	57048.22
584.58	56709.89
584.79	57089.42
584.99	56976.37
585.19	56893.96
585.40	56739.63
585.60	57159.95
585.80	56669.92
586.00	56943.03
586.21	56870.45
586.41	56923.70
586.61	57263.99
586.82	56890.85
587.02	56863.08
587.22	57284.14
587.42	56711.61
587.63	57520.40
587.83	56887.00
588.03	57280.62
588.23	57047.73
588.44	57379.99
588.64	57110.80
588.84	57380.64
589.05	57495.66
589.25	57573.97
589.45	57558.65
589.65	57306.83
589.86	57549.56
590.06	57660.56
590.26	57262.93
590.46	57727.24
590.67	57012.50
590.87	57661.79
591.07	58049.92
591.27	57430.37
591.48	58086.95
591.68	57254.98
591.88	58392.34
592.08	57488.12
592.29	57945.56
592.49	57729.95
592.69	58049.26
592.89	57582.49
593.10	57720.03
593.30	57541.53
593.50	58050.08
593.70	57119.98
593.90	58177.30
594.11	57903.04
594.31	58016.99
594.51	58311.24
594.71	58333.85
594.92	58249.72
595.12	58014.29
595.32	57994.13
595.52	58236.78
595.72	57691.03
595.93	58453.45
596.13	58154.94
596.33	57871.09
596.53	58467.21
596.73	58338.11
596.94	58053.03
597.14	58467.71
597.34	58161.33
597.54	58793.50
597.74	58274.54
597.95	58561.42
598.15	58508.75
598.35	58648.50
598.55	58802.84
598.75	58485.24
598.96	59072.35
599.16	58418.80
599.36	58629.66
599.56	58494.33
599.76	58455.50
599.97	59068.99
600.17	58856.66
600.37	58907.86
600.57	58063.27
600.77	59221.69
600.97	58865.01
601.18	59326.38
601.38	58744.18
601.58	59143.86
601.78	58766.38
601.98	58672.75
602.18	58923.83
602.39	59371.27
602.59	58974.13
602.79	58971.59
602.99	58985.02
603.19	59039.25
603.39	58884.84
603.60	59056.05
603.80	59060.55
604.00	59025.90
604.20	59270.18
604.40	59342.02
604.60	59095.61
604.80	59157.63
605.01	59388.23
605.21	59338.50
605.41	59159.02
605.61	58801.36
605.81	59190.31
606.01	59719.26
606.21	59030.00
606.42	59573.77
606.62	59026.72
606.82	59657.66
607.02	59256.34
607.22	59580.74
607.42	59784.88
607.62	59012.06
607.82	59429.02
608.03	59505.70
608.23	59511.02
608.43	59141.73
608.63	59682.72
608.83	59489.40
609.03	59482.60
609.23	59640.13
609.43	59760.22
609.63	59408.21
609.84	59291.73
610.04	60152.94
610.24	59942.82
610.44	59978.37
610.64	59567.63
610.84	59934.13
611.04	60332.18
611.24	60057.09
611.44	59399.86
611.64	59907.26
611.85	59949.04
612.05	59937.98
612.25	60274.01
612.45	59909.31
612.65	60300.97
612.85	60388.45
613.05	59983.45
613.25	60486.35
613.45	60255.91
613.65	60200.45
613.85	59611.29
614.05	60197.67
614.25	60250.99
614.46	59842.79
614.66	59712.54
614.86	59580.33
615.06	59812.89
615.26	60254.52
615.46	59438.52
615.66	60346.51
615.86	60230.43
616.06	59755.39
616.26	59781.44
616.46	60391.24
616.66	59889.41
616.86	60499.86
617.06	59983.45
617.26	60519.20
617.46	60152.53
617.66	59994.10
617.86	59941.75
618.07	60398.45
618.27	60154.25
618.47	60383.54
618.67	60424.17
618.87	60634.46
619.07	60223.22
619.27	60077.65
619.47	60131.72
619.67	60517.31
619.87	59962.64
620.07	60537.46
620.27	60473.73
620.47	60184.07
620.67	60399.51
620.87	60422.37
621.07	60613.98
621.27	60532.71
621.47	60136.55
621.67	60434.08
621.87	60051.03
622.07	60730.47
622.27	60580.14
622.47	60284.50
622.67	60587.03
622.87	60223.14
623.07	60621.35
623.27	60947.55
623.47	59898.91
623.67	60414.10
623.87	60825.25
624.07	60652.48
624.27	60058.40
624.47	60466.93
624.67	60336.60
624.87	60554.91
625.07	60226.17
625.27	60789.53
625.47	60292.53
625.67	60310.39
625.87	60603.57
626.07	60554.67
626.27	60938.54
626.47	60714.90
626.67	60517.39
626.87	60268.94
627.07	60756.60
627.27	60688.69
627.47	60953.28
627.67	60563.43
627.87	60384.44
628.07	60986.87
628.27	60569.17
628.47	60267.21
628.67	60732.60
628.86	60819.59
629.06	60335.45
629.26	60256.73
629.46	60696.96
629.66	60766.43
629.86	60239.03
630.06	61007.84
630.26	60724.89
630.46	61081.57
630.66	60484.38
630.86	60664.03
631.06	60797.07
631.26	60480.29
631.46	61055.60
631.66	60771.34
631.86	60369.37
632.06	61034.88
632.26	60513.22
632.45	60676.56
632.65	60715.56
632.85	61079.68
633.05	60760.61
633.25	60928.30
633.45	60471.36
633.65	60725.80
633.85	61286.94
634.05	60346.35
634.25	60605.29
634.45	60778.55
634.65	61096.89
634.84	60679.43
635.04	60887.59
635.24	60553.44
635.44	61010.05
635.64	60606.60
635.84	60966.39
636.04	60820.74
636.24	60673.78
636.44	60937.64
636.64	60099.28
636.84	61247.04
637.03	60245.51
637.23	60650.27
637.43	60682.95
637.63	60413.52
637.83	60786.01
638.03	60864.73
638.23	60288.10
638.43	60911.83
638.62	61282.84
638.82	60074.46
639.02	61103.85
639.22	60569.49
639.42	60846.38
639.62	60477.66
639.82	60641.67
640.02	60680.49
640.21	60993.34
640.41	60227.89
640.61	60692.13
640.81	60576.87
641.01	60544.43
641.21	60521.57
641.41	61311.52
641.61	60579.57
641.80	60786.33
642.00	61121.46
642.20	61103.44
642.40	60412.54
642.60	60987.44
642.80	61064.69
642.99	60462.75
643.19	60970.49
643.39	60308.75
643.59	60750.45
643.79	60627.17
643.99	60799.60
644.19	60893.57
644.38	60302.77
644.58	60615.70
644.78	60486.43
644.98	60378.05
645.18	60903.31
645.38	61074.36
645.57	60572.36
645.77	60813.37
645.97	60592.43
646.17	60965.74
646.37	60813.37
646.56	60611.93
646.76	60716.29
646.96	60705.40
647.16	60524.60
647.36	60673.37
647.55	60537.06
647.75	60842.69
647.95	60534.84
648.15	60993.18
648.35	60888.73
648.55	61112.62
648.74	60786.66
648.94	60940.59
649.14	61292.92
649.34	60809.35
649.54	60645.68
649.73	60807.39
649.93	60756.52
650.13	60775.68
650.33	60578.51
650.52	61014.89
650.72	61234.10
650.92	60732.76
651.12	60448.58
651.32	60773.55
651.51	60869.07
651.71	60834.83
651.91	60454.64
652.11	60346.84
652.30	60344.38
652.50	60951.48
652.70	60890.86
652.90	60513.30
653.10	60900.94
653.29	60586.53
653.49	61044.79
653.69	60584.57
653.89	60667.55
654.08	60594.89
654.28	60937.80
654.48	60645.19
654.68	61024.88
654.87	60753.40
655.07	60488.48
655.27	60854.74
655.47	60496.26
655.66	60565.81
655.86	60528.62
656.06	61141.29
656.26	60242.48
656.45	60708.76
656.65	60639.45
656.85	60505.27
657.04	60229.53
657.24	60286.14
657.44	60194.80
657.64	60806.57
657.83	59902.43
658.03	60612.01
658.23	60578.34
658.43	60471.44
658.62	60645.11
658.82	60388.95
659.02	60334.39
659.21	60603.41
659.41	60069.46
659.61	60716.29
659.81	60357.98
660.00	60069.22
660.20	60355.85
660.40	60095.76
660.59	60393.70
660.79	59699.68
660.99	60440.80
661.19	60254.03
661.38	60320.87
661.58	59702.14
661.78	60198.81
661.97	59667.16
662.17	60573.51
662.37	59684.61
662.56	59846.89
662.76	59977.30
662.96	60202.74
663.15	60205.86
663.35	60401.23
663.55	59742.44
663.74	59542.15
663.94	60030.88
664.14	59548.05
664.33	60074.38
664.53	59624.23
664.73	60406.80
664.93	59443.77
665.12	59995.33
665.32	59821.66
665.52	59732.29
665.71	59634.47
665.91	59740.31
666.10	59690.10
666.30	60094.94
666.50	59613.01
666.69	59602.85
666.89	59859.34
667.09	60194.55
667.28	59780.95
667.48	59541.99
667.68	59659.87
667.87	59689.52
668.07	59330.64
668.27	59964.61
668.46	59990.98
668.66	59844.35
668.86	60221.59
669.05	59808.14
669.25	60223.22
669.44	59742.20
669.64	59690.51
669.84	59596.38
670.03	60224.45
670.23	59697.06
670.43	59571.07
670.62	59607.93
670.82	59543.79
671.01	60034.40
671.21	59527.41
671.41	59542.07
671.60	59919.96
671.80	60107.56
672.00	59786.35
672.19	59952.89
672.39	60003.85
672.58	59768.58
672.78	59623.42
672.98	60173.83
673.17	60002.62
673.37	59133.21
673.56	59532.40
673.76	59391.09
673.96	59919.63
674.15	59499.39
674.35	59701.81
674.54	59489.89
674.74	59610.55
674.94	59551.00
675.13	59885.15
675.33	59252.81
675.52	59921.85
675.72	59923.81
675.91	59743.92
676.11	60184.89
676.31	59481.86
676.50	59594.74
676.70	59649.63
676.89	59887.44
677.09	59869.17
677.28	59788.48
677.48	59213.08
677.68	59690.59
677.87	59411.41
678.07	59417.88
678.26	59346.69
678.46	59483.74
678.65	59247.49
678.85	59570.50
679.04	59084.47
679.24	59338.75
679.44	59051.70
679.63	59324.82
679.83	59050.56
680.02	59045.23
680.22	58899.01
680.41	59035.98
680.61	58971.59
680.80	58791.86
681.00	59164.67
681.19	59025.33
681.39	58677.09
681.59	58735.99
681.78	58689.21
681.98	59067.19
682.17	58459.92
682.37	58748.36
682.56	58496.54
682.76	59094.63
682.95	58801.44
683.15	58849.28
683.34	58852.07
683.54	58903.02
683.73	59139.36
683.93	58483.76
684.12	58941.36
684.32	59176.38
684.51	58586.65
684.71	58980.03
684.90	58974.21
685.10	58918.26
685.29	58752.37
685.49	58974.95
685.68	58930.96
685.88	58922.60
686.07	58546.43
686.27	59136.00
686.46	58855.18
686.66	58618.11
686.85	58744.26
687.05	58420.03
687.24	58341.71
687.44	58699.21
687.63	58657.18
687.83	57910.00
688.02	58557.41
688.22	58634.82
688.41	58453.78
688.61	58606.31
688.80	58701.01
689.00	58122.34
689.19	58144.13
689.39	58776.87
689.58	58618.68
689.77	58597.71
689.97	58650.14
690.16	58257.34
690.36	57791.30
690.55	57591.91
690.75	58404.38
690.94	57983.16
691.14	58367.11
691.33	57815.30
691.53	58428.38
691.72	58072.20
691.91	58245.30
692.11	58046.81
692.30	58314.44
692.50	58306.74
692.69	57789.58
692.89	58144.37
693.08	58179.35
693.28	58134.62
693.47	58084.82
693.66	58072.53
693.86	57865.85
694.05	57731.17
694.25	57849.46
694.44	58037.06
694.64	57800.40
694.83	57840.21
695.02	57779.67
695.22	58063.52
695.41	57705.62
695.61	57408.91
695.80	57642.37
695.99	57474.85
696.19	57694.31
696.38	57689.81
696.58	57197.72
696.77	58091.21
696.96	57705.04
697.16	57451.09
697.35	57262.11
697.55	57312.65
697.74	57144.80
697.93	57833.33
698.13	57394.98
698.32	57579.95
698.52	57399.08
698.71	56952.70
698.90	57831.93
699.10	57294.38
699.29	57391.13
699.49	57654.58
699.68	57217.22
699.87	57090.32
700.07	57533.91
700.26	57120.55
700.45	57003.49
700.65	56857.76
700.84	57405.14
701.04	56862.18
701.23	57379.99
701.42	57141.03
701.62	57035.03
701.81	57198.78
702.00	57142.67
702.20	56746.35
702.39	56924.44
702.58	57390.80
702.78	56832.85
702.97	56933.94
703.17	57159.95
703.36	57095.24
703.55	56803.94
703.75	56675.73
703.94	56849.65
704.13	56459.22
704.33	56474.54
704.52	56928.78
704.71	56837.19
704.91	56718.08
705.10	56292.60
705.29	56416.71
705.49	56564.00
705.68	56637.48
705.87	56718.74
706.07	56137.77
706.26	56811.47
706.45	55959.84
706.65	56048.24
706.84	56640.51
707.03	56873.57
707.23	55839.26
707.42	55722.61
707.61	56194.38
707.80	55757.75
708.00	55734.65
708.19	55784.87
708.38	56286.05
708.58	55317.11
708.77	56216.74
708.96	55443.92
709.16	55396.00
709.35	56491.50
709.54	55832.63
709.74	55759.88
709.93	55251.90
710.12	56195.85
710.31	56420.64
710.51	55985.57
710.70	56046.02
710.89	56188.48
711.09	55377.81
711.28	55259.28
711.47	55718.76
711.66	55417.95
711.86	55357.50
712.05	55484.14
712.24	55749.07
712.43	55365.03
712.63	54824.37
712.82	55729.24
713.01	55467.51
713.21	54968.14
713.40	55210.37
713.59	55821.73
713.78	54922.34
713.98	55560.08
714.17	55170.97
714.36	55176.70
714.55	54521.02
714.75	54805.28
714.94	54856.97
715.13	55102.65
715.32	54443.45
715.52	54781.36
715.71	54348.67
715.90	54674.38
716.09	54371.85
716.29	54977.48
716.48	54726.15
716.67	54191.71
716.86	54558.87
717.06	54599.99
717.25	54676.92
717.44	54837.48
717.63	54591.80
717.82	54200.07
718.02	54318.44
718.21	54534.21
718.40	54605.56
718.59	54299.60
718.79	53892.38
718.98	54035.41
719.17	54373.82
719.36	54285.10
719.55	53848.88
719.75	53726.49
719.94	53663.33
720.13	54226.85
720.32	53960.78
720.51	53555.53
720.71	53609.92
720.90	53118.66
721.09	53534.89
721.28	53234.24
721.47	53806.61
721.67	53491.06
721.86	53335.17
722.05	53272.66
722.24	52833.17
722.43	53591.49
722.63	52779.43
722.82	53185.58
723.01	53227.77
723.20	52851.03
723.39	52809.25
723.58	53448.38
723.78	52636.81
723.97	53621.72
724.16	52943.76
724.35	53175.92
724.54	52720.94
724.73	53286.84
724.93	52657.62
725.12	53198.86
725.31	52352.80
725.50	52785.66
725.69	53101.04
725.88	52765.59
726.08	52290.87
726.27	52984.88
726.46	52053.55
726.65	53267.09
726.84	52398.92
727.03	52545.96
727.23	52963.75
727.42	52512.38
727.61	52409.65
727.80	52303.40
727.99	52490.34
728.18	52565.62
728.37	52103.44
728.56	51944.93
728.76	51770.68
728.95	51986.46
729.14	51927.89
729.33	51807.06
729.52	51847.03
729.71	51877.10
729.90	51845.39
730.09	51524.68
730.29	51916.83
730.48	51216.75
730.67	51887.83
730.86	51429.82
731.05	51967.21
731.24	51511.08
731.43	51532.87
731.62	51166.86
731.81	51110.58
732.01	51767.82
732.20	51208.15
732.39	51486.26
732.58	51341.68
732.77	50537.97
732.96	51179.07
733.15	51310.14
733.34	50964.11
733.53	51172.51
733.72	51206.43
733.92	51080.27
734.11	50963.46
734.30	51082.32
734.49	51261.23
734.68	51045.05
734.87	50845.08
735.06	50965.01
735.25	50886.53
735.44	50677.81
735.63	50815.84
735.82	51010.15
736.01	50449.25
736.20	50569.92
736.40	50895.46
736.59	50974.93
736.78	51009.49
736.97	50522.00
737.16	50663.14
737.35	50791.02
737.54	50567.46
737.73	50360.70
737.92	50591.55
738.11	50760.46
738.30	50288.28
738.49	50330.96
738.68	50240.20
738.87	50563.69
739.06	50046.46
739.25	50263.38
739.44	50200.22
739.63	50118.22
739.82	49813.89
740.01	50385.85
740.20	49925.55
740.39	50145.09
740.59	49927.18
740.78	50250.35
740.97	49763.18
741.16	49497.68
741.35	49728.45
741.54	49570.43
741.73	49627.12
741.92	49497.11
742.11	49515.71
742.30	49750.73
742.49	49007.56
742.68	49680.85
742.87	49332.37
743.06	48832.59
743.25	49342.86
743.44	49173.29
743.63	49460.66
743.82	49185.98
744.01	49128.89
744.20	49045.41
744.39	49297.56
744.58	49259.79
744.77	48814.48
744.96	48500.73
745.15	48705.78
745.34	48513.51
745.53	48612.47
745.72	48341.48
745.91	48345.17
746.10	48092.04
746.29	48483.61
746.48	48581.67
746.67	48444.62
746.86	48782.45
747.04	48449.12
747.23	48396.61
747.42	48670.39
747.61	48238.51
747.80	48910.49
747.99	48048.87
748.18	48578.15
748.37	48618.20
748.56	47827.44
748.75	48306.01
748.94	48182.07
749.13	48337.06
749.32	47702.68
749.51	47974.41
749.70	47965.89
749.89	47840.80
750.08	47793.77
750.27	47366.16
750.46	47821.95
750.65	48286.60
750.84	47505.01
751.02	47807.62
751.21	47505.50
751.40	47686.54
751.59	47692.44
751.78	47604.54
751.97	47599.95
752.16	47329.30
752.35	47768.63
752.54	47176.35
752.73	47500.51
752.92	47059.37
753.11	47006.78
753.30	47277.69
753.49	47345.02
753.67	46987.69
753.86	46690.82
754.05	47103.45
754.24	46439.66
754.43	46599.56
754.62	46672.39
754.81	46417.29
755.00	46514.53
755.19	46507.98
755.38	45964.36
755.56	46697.62
755.75	47042.17
755.94	46542.55
756.13	46501.10
756.32	46654.45
756.51	46318.75
756.70	46598.74
756.89	46393.37
757.08	46409.59
757.26	46451.86
757.45	46467.92
757.64	45893.59
757.83	46623.48
758.02	46198.24
758.21	46252.72
758.40	46382.56
758.59	46475.78
758.77	46086.18
758.96	46416.39
759.15	46399.60
759.34	46120.34
759.53	46141.64
759.72	46232.57
759.91	45726.47
760.09	46070.29
760.28	46116.90
760.47	45675.68
760.66	46071.92
760.85	45683.63
761.04	46063.32
761.23	46065.45
761.41	45679.62
761.60	46123.37
761.79	45744.17
761.98	45689.94
762.17	46063.40
762.36	45640.87
762.54	46023.02
762.73	45902.68
762.92	45607.04
763.11	46261.24
763.30	46120.42
763.49	46113.29
763.67	45916.28
763.86	45967.81
764.05	46099.45
764.24	45896.21
764.43	46106.66
764.61	45560.10
764.80	45512.75
764.99	46042.52
765.18	45240.29
765.37	45671.26
765.55	45581.97
765.74	45210.22
765.93	44903.11
766.12	45404.78
766.31	45196.05
766.49	45370.95
766.68	45362.18
766.87	45536.34
767.06	45098.16
767.25	45515.86
767.43	45354.64
767.62	45302.54
767.81	45472.03
768.00	45280.83
768.19	44915.31
768.37	45268.22
768.56	45192.36
768.75	45369.06
768.94	45450.08
769.12	45170.41
769.31	44955.54
769.50	45177.29
769.69	45310.57
769.88	44911.22
770.06	45683.71
770.25	45168.11
770.44	44820.62
770.63	45359.80
770.81	44933.25
771.00	44822.17
771.19	44952.42
771.38	44938.17
771.56	45048.60
771.75	44235.39
771.94	44671.85
772.13	44765.07
772.31	44180.67
772.50	44966.51
772.69	44435.02
772.88	45234.80
773.06	44467.63
773.25	44808.08
773.44	44583.30
773.62	44463.37
773.81	44529.15
774.00	44294.53
774.19	44279.87
774.37	44269.47
774.56	44702.73
774.75	44117.83
774.94	44469.84
775.12	44188.04
775.31	44400.70
775.50	44612.30
775.68	44295.93
775.87	44294.53
776.06	44114.15
776.25	44570.76
776.43	44326.40
776.62	44813.73
776.81	44073.35
776.99	44591.65
777.18	44300.35
777.37	43915.99
777.55	44070.24
777.74	44164.20
777.93	43966.69
778.12	44253.90
778.30	43796.55
778.49	44076.55
778.68	44201.47
778.86	44255.46
779.05	44258.73
779.24	44455.91
779.42	44084.66
779.61	43994.22
779.80	44101.04
779.98	44542.01
780.17	44616.80
780.36	44038.62
780.54	44432.32
780.73	43651.06
780.92	44279.71
781.10	44052.46
781.29	43820.88
781.48	43816.62
781.66	43712.42
781.85	44163.54
782.04	43765.99
782.22	43971.86
782.41	43486.24
782.60	43822.19
782.78	43678.09
782.97	43931.39
783.16	43215.42
783.34	43357.14
783.53	43499.27
783.71	43305.12
783.90	43290.62
784.09	43291.36
784.27	43201.82
784.46	43275.71
784.65	43227.95
784.83	43069.85
785.02	43076.73
785.20	43746.82
785.39	42694.00
785.58	43649.67
785.76	43371.14
785.95	43286.60
786.14	43455.60
786.32	43486.81
786.51	43224.10
786.69	43808.51
786.88	43394.98
787.07	43539.98
787.25	43382.12
787.44	43753.30
787.62	43448.31
787.81	43857.91
788.00	43602.24
788.18	43566.68
788.37	43202.56
788.55	44067.04
788.74	43466.25
788.93	43729.46
789.11	43934.75
789.30	43820.96
789.48	43476.08
789.67	43968.91
789.86	43667.45
790.04	44077.69
790.23	43792.37
790.41	43921.72
790.60	44095.47
790.78	44186.81
790.97	43613.79
791.16	44300.19
791.34	44586.16
791.53	43975.13
791.71	44436.42
791.90	44095.39
792.08	44188.45
792.27	44347.94
792.46	44074.09
792.64	44381.45
792.83	44027.40
793.01	44323.61
793.20	44228.83
793.38	44165.51
793.57	44385.30
793.75	44478.52
793.94	44404.71
794.12	44998.79
794.31	44320.09
794.50	44911.63
794.68	45056.21
794.87	44968.40
795.05	45211.70
795.24	45077.02
795.42	44930.06
795.61	45566.40
795.79	45439.27
795.98	44886.97
796.16	45334.33
796.35	45532.24
796.53	45045.32
796.72	45778.16
796.90	45493.17
797.09	45589.10
797.27	45331.79
797.46	45401.83
797.64	45612.11
797.83	45642.67
798.01	45642.67
798.20	46055.46
798.38	45627.43
798.57	46106.99
798.75	45702.06
798.94	45299.43
799.12	46583.34
799.31	46021.95
799.49	46035.22
799.68	45896.62
799.86	45844.85
800.05	45994.43
800.23	45880.15
800.42	45724.83
800.60	46151.14
800.79	45593.19
800.97	45704.85
801.16	46271.97
801.34	45449.42
801.53	45696.16
801.71	45881.95
801.90	45663.40
802.08	46055.87
802.27	46065.21
802.45	45634.48
802.64	46253.62
802.82	46213.32
803.00	45864.51
803.19	46118.37
803.37	46584.98
803.56	45947.08
803.74	46277.62
803.93	46132.22
804.11	46217.41
804.30	45762.03
804.48	46313.17
804.67	46256.49
804.85	46233.71
805.03	46386.00
805.22	46195.87
805.40	45860.98
805.59	46441.38
805.77	46360.69
805.96	46275.08
806.14	46102.48
806.32	46455.22
806.51	46672.63
806.69	46302.61
806.88	46088.64
807.06	45984.11
807.25	45916.03
807.43	46148.19
807.61	46011.80
807.80	46019.00
807.98	46252.56
808.17	45989.68
808.35	45594.34
808.53	46316.29
808.72	45863.44
808.90	45925.78
809.09	46046.45
809.27	46268.04
809.45	45782.91
809.64	46493.31
809.82	46066.03
810.01	46474.72
810.19	46497.82
810.37	46325.22
810.56	46027.61
810.74	46445.88
810.93	45801.18
811.11	46037.27
811.29	45665.85
811.48	46018.10
811.66	45854.51
811.84	45855.09
812.03	45710.01
812.21	45870.40
812.40	45891.54
812.58	46236.09
812.76	45603.92
812.95	46115.83
813.13	45248.64
813.31	45612.28
813.50	45598.11
813.68	45592.45
813.86	45611.21
814.05	45964.04
814.23	45128.47
814.42	45834.36
814.60	45262.57
814.78	45623.66
814.97	45480.23
815.15	45576.15
815.33	45568.12
815.52	45378.40
815.70	45315.90
815.88	45595.98
816.07	44929.57
816.25	45328.27
816.43	45154.52
816.62	44854.12
816.80	45202.36
816.98	45236.84
817.17	45297.30
817.35	45522.09
817.53	45492.59
817.72	45811.18
817.90	44919.25
818.08	45325.56
818.26	45604.82
818.45	45273.38
818.63	45498.25
818.81	45544.61
819.00	44776.38
819.18	45434.60
819.36	45166.72
819.55	45380.94
819.73	44836.34
819.91	45516.68
820.09	45093.40
820.28	45462.20
820.46	44702.82
820.64	45567.71
820.83	44769.50
821.01	45093.73
821.19	44726.33
821.38	45031.15
821.56	44779.41
821.74	45236.76
821.92	44718.05
822.11	45323.92
822.29	44606.97
822.47	44940.05
822.65	44888.53
822.84	45284.60
823.02	44494.41
823.20	45333.59
823.39	44497.36
823.57	44772.37
823.75	44660.22
823.93	44580.51
824.12	44598.53
824.30	44475.16
824.48	44398.41
824.66	44937.19
824.85	43682.19
825.03	44614.59
825.21	44641.21
825.39	44457.96
825.58	44447.07
825.76	44255.38
825.94	44134.87
826.12	44204.42
826.31	43701.52
826.49	44094.41
826.67	44125.29
826.85	44023.79
827.03	44011.01
827.22	44398.24
827.40	44023.79
827.58	44096.29
827.76	44202.87
827.95	43920.00
828.13	43914.84
828.31	44002.74
828.49	44037.14
828.67	44137.66
828.86	43712.17
829.04	44017.65
829.22	43698.00
829.40	43704.31
829.58	43546.29
829.77	43668.76
829.95	43736.75
830.13	43778.04
830.31	43665.56
830.49	43850.62
830.68	43691.04
830.86	43630.75
831.04	43382.37
831.22	43640.25
831.40	43499.51
831.59	43912.30
831.77	43345.09
831.95	43786.96
832.13	43185.19
832.31	43694.07
832.50	43471.17
832.68	43345.67
832.86	43461.42
833.04	43863.89
833.22	42960.57
833.40	43847.17
833.59	43207.39
833.77	43861.51
833.95	42558.76
834.13	44123.65
834.31	43288.90
834.49	43381.71
834.67	43153.32
834.86	43360.00
835.04	43030.77
835.22	43243.93
835.40	42995.38
835.58	42984.98
835.76	42939.60
835.95	43278.41
836.13	42818.11
836.31	42894.95
836.49	43176.01
836.67	43443.23
836.85	43099.42
837.03	43203.13
837.21	43151.60
837.40	43030.36
837.58	42515.50
837.76	43035.36
837.94	42841.54
838.12	43262.19
838.30	42558.10
838.48	42778.30
838.66	42463.98
838.85	42616.76
839.03	42469.47
839.21	42496.99
839.39	42347.65
839.57	42604.39
839.75	42107.63
839.93	42375.34
840.11	42334.38
840.29	42245.09
840.47	42239.44
840.66	42389.27
840.84	42169.64
841.02	42107.30
841.20	42028.41
841.38	42112.71
841.56	41848.68
841.74	42479.71
841.92	41735.88
842.10	41840.57
842.28	41914.55
842.46	41644.87
842.65	41379.62
842.83	41927.49
843.01	41989.42
843.19	41582.86
843.37	41831.73
843.55	41589.41
843.73	41874.65
843.91	42021.86
844.09	41685.99
844.27	42353.30
844.45	41787.16
844.63	42018.75
844.81	41917.25
844.99	42090.43
845.17	41681.65
845.35	42113.36
845.54	41614.32
845.72	41807.97
845.90	41715.65
846.08	41802.89
846.26	41176.54
846.44	41771.27
846.62	41018.44
846.80	41235.93
846.98	41204.64
847.16	41205.70
847.34	41284.84
847.52	41149.02
847.70	40703.46
847.88	41308.59
848.06	40886.55
848.24	41193.58
848.42	40997.79
848.60	40877.62
848.78	41105.60
848.96	41236.92
849.14	40917.02
849.32	41543.62
849.50	40970.02
849.68	41311.46
849.86	41097.24
850.04	40925.62
850.22	40817.16
850.40	40597.87
850.58	40859.76
850.76	41675.43
850.94	40153.70
851.12	40884.67
851.30	40303.78
851.48	40818.39
851.66	40229.56
851.84	40374.31
852.02	40207.69
852.20	40736.47
852.38	39947.51
852.56	40329.34
852.74	40243.41
852.92	40165.17
853.10	39873.71
853.28	40358.34
853.46	39354.26
853.64	40012.48
853.82	39559.14
854.00	39847.41
854.18	39415.53
854.36	39361.80
854.54	39612.47
854.72	39418.24
854.90	39155.36
855.07	39585.27
855.25	39243.67
855.43	39567.08
855.61	39216.55
855.79	39306.66
855.97	39377.44
856.15	39504.17
856.33	39060.17
856.51	39764.92
856.69	38959.66
856.87	39589.61
857.05	39208.12
857.23	39497.04
857.41	38901.17
857.59	39143.07
857.77	38926.97
857.94	39069.18
858.12	39237.52
858.30	39071.39
858.48	38885.19
858.66	38921.97
858.84	39126.36
859.02	38782.14
859.20	38543.67
859.38	39164.70
859.56	38785.66
859.74	38817.28
859.92	38689.32
860.09	38544.82
860.27	38653.44
860.45	38393.84
860.63	38345.10
860.81	38581.36
860.99	38216.49
861.17	37818.61
861.35	37269.26
861.53	37154.74
861.70	37011.30
861.88	38064.78
862.06	38012.51
862.24	37561.63
862.42	37423.43
862.60	38136.29
862.78	38005.63
862.96	38393.68
863.14	37828.93
863.31	38043.40
863.49	37727.76
863.67	37834.67
863.85	37642.89
864.03	37948.70
864.21	37767.98
864.39	37810.99
864.56	37378.38
864.74	37705.73
864.92	37414.18
865.10	37344.71
865.28	37358.14
865.46	37971.22
865.64	36815.84
865.81	37329.80
865.99	36664.29
866.17	37362.49
866.35	36860.08
866.53	37086.67
866.71	37057.26
866.88	37326.77
867.06	36623.74
867.24	37110.26
867.42	36755.06
867.60	37009.09
867.78	36531.26
867.95	37103.05
868.13	36362.42
868.31	36830.51
868.49	36437.79
868.67	36418.13
868.84	36020.49
869.02	36334.98
869.20	35506.13
869.38	36248.06
869.56	35737.55
869.73	35817.34
869.91	35803.08
870.09	36022.87
870.27	35567.16
870.45	35992.97
870.62	35522.43
870.80	36239.46
870.98	35791.53
871.16	36076.44
871.34	35853.13
871.51	36226.11
871.69	35687.41
871.87	35969.87
872.05	35619.58
872.23	35694.38
872.40	35095.22
872.58	35425.76
872.76	34989.14
872.94	35180.74
873.11	35064.42
873.29	34789.75
873.47	34868.47
873.65	34771.15
873.83	34691.94
874.00	34802.28
874.18	34765.83
874.36	34725.52
874.54	34810.31
874.71	34681.70
874.89	34200.83
875.07	34662.85
875.25	34318.39
875.42	34531.46
875.60	34214.92
875.78	34699.23
875.96	34129.81
876.13	34549.81
876.31	33770.27
876.49	34059.03
876.66	33670.65
876.84	34515.65
877.02	33872.34
877.20	34090.16
877.37	33950.08
877.55	34147.99
877.73	33824.91
877.91	33858.82
878.08	34015.53
878.26	34125.22
878.44	33997.76
878.61	34200.34
878.79	33804.02
878.97	34126.86
879.15	34127.11
879.32	34227.46
879.50	33880.78
879.68	34452.98
879.85	33721.94
880.03	34264.48
880.21	33730.37
880.38	34345.26
880.56	33730.54
880.74	34493.61
880.92	33704.08
881.09	34134.81
881.27	33830.15
881.45	33976.70
881.62	33717.10
881.80	33797.87
881.98	33678.68
882.15	34147.01
882.33	33762.98
882.51	34150.78
882.68	33694.41
882.86	34276.61
883.04	33654.35
883.21	33848.75
883.39	34043.79
883.57	33844.24
883.74	33667.05
883.92	33968.92
884.10	33892.82
884.27	33943.61
884.45	33742.82
884.63	34300.94
884.80	33938.04
884.98	34172.65
885.16	33810.90
885.33	33908.46
885.51	33933.45
885.69	34235.48
885.86	33968.43
886.04	34409.48
886.21	33878.32
886.39	34536.04
886.57	33658.86
886.74	34502.38
886.92	34185.35
887.10	34430.94
887.27	34184.86
887.45	34286.93
887.62	33959.91
887.80	34204.35
887.98	34351.40
888.15	34333.95
888.33	34021.51
888.51	34524.17
888.68	34018.89
888.86	34418.41
889.03	34125.39
889.21	34431.35
889.39	34533.18
889.56	34660.56
889.74	34493.69
889.91	34697.42
890.09	34578.56
890.27	34697.42
890.44	34325.84
890.62	34746.66
890.79	34782.46
890.97	34924.67
891.14	34549.72
891.32	34729.62
891.50	34441.59
891.67	34730.44
891.85	34667.93
892.02	34650.48
892.20	34839.23
892.38	34678.09
892.55	34378.02
892.73	34775.57
892.90	34329.53
893.08	34684.15
893.25	34421.19
893.43	35007.57
893.60	34459.20
893.78	34842.09
893.96	34622.71
894.13	34750.02
894.31	34913.28
894.48	34733.88
894.66	34662.94
894.83	34801.71
895.01	34546.45
895.18	34965.79
895.36	34433.32
895.53	34886.25
895.71	34575.53
895.89	34799.90
896.06	34487.63
896.24	34822.51
896.41	34583.80
896.59	34853.07
896.76	34112.52
896.94	34683.99
897.11	34462.89
897.29	34618.62
897.46	34099.83
897.64	34317.57
897.81	34234.50
897.99	33927.47
898.16	34334.85
898.34	34397.77
898.51	34180.03
898.69	34159.30
898.86	34169.13
899.04	34363.36
899.21	33955.73
899.39	34262.35
899.56	33845.06
899.74	34477.23
899.91	33984.16
900.09	33969.49
900.26	34049.53
900.44	33915.76
900.61	33970.15
900.79	34537.85
900.96	33941.97
901.14	34086.72
901.31	33786.98
901.49	33913.05
901.66	33829.09
901.84	34017.09
902.01	33527.30
902.19	33714.89
902.36	33248.77
902.54	33529.75
902.71	33221.41
902.88	33564.41
903.06	32782.82
903.23	33558.67
903.41	33032.51
903.58	33126.80
903.76	32572.21
903.93	33141.13
904.11	33194.38
904.28	33006.13
904.45	32766.19
904.63	32821.65
904.80	32365.28
904.98	32826.24
905.15	32182.76
905.33	32686.81
905.50	32262.96
905.68	32613.90
905.85	32129.60
906.02	32183.09
906.20	32360.61
906.37	32023.84
906.55	31803.81
906.72	32331.61
906.90	31890.97
907.07	31791.77
907.24	31905.63
907.42	31639.07
907.59	31608.35
907.77	31523.81
907.94	31435.58
908.11	31687.89
908.29	31415.43
908.46	31501.53
908.64	30999.45
908.81	31432.96
908.98	30989.62
909.16	31419.20
909.33	30935.31
909.51	30901.15
909.68	30845.03
909.85	30933.42
910.03	30693.48
910.20	30476.97
910.37	30429.54
910.55	30471.97
910.72	30422.99
910.90	30176.82
911.07	29990.45
911.24	29790.00
911.42	29959.08
911.59	29617.81
911.76	29643.61
911.94	29457.25
912.11	29342.07
912.29	29526.55
912.46	29062.64
912.63	29333.30
912.81	28858.75
912.98	29168.48
913.15	28700.48
913.33	29085.25
913.50	28739.15
913.67	28618.23
913.85	28397.38
914.02	28707.85
914.19	28421.96
914.37	28417.78
914.54	28431.46
914.71	28244.36
914.89	28179.07
915.06	28232.23
915.23	27925.28
915.41	28017.77
915.58	27779.55
915.75	27750.96
915.93	27640.37
916.10	27720.57
916.27	27604.08
916.45	27589.66
916.62	27237.33
916.79	27659.21
916.97	27137.47
917.14	27241.18
917.31	26813.07
917.49	26926.69
917.66	26741.97
917.83	26591.32
918.00	26368.99
918.18	26240.95
918.35	25969.72
918.52	26271.51
918.70	25787.53
918.87	25957.92
919.04	25918.36
919.21	26115.12
919.39	25677.76
919.56	26060.98
919.73	25597.07
919.91	25931.22
920.08	25778.77
920.25	25672.44
920.42	25761.89
920.60	25561.68
920.77	25150.20
920.94	25487.79
921.11	24946.47
921.29	25229.25
921.46	24635.75
921.63	25092.61
921.81	24663.93
921.98	24728.98
922.15	24507.30
922.32	24717.84
922.50	24334.54
922.67	24440.62
922.84	24153.99
923.01	24032.75
923.19	23932.07
923.36	24035.37
923.53	23466.45
923.70	23732.03
923.87	23335.62
924.05	23557.21
924.22	23123.29
924.39	23390.92
924.56	22834.93
924.74	23214.63
924.91	23139.92
925.08	22968.79
925.25	22952.57
925.43	22921.69
925.60	22486.94
925.77	22971.98
925.94	22572.79
926.11	22649.39
926.29	22304.10
926.46	22615.96
926.63	22267.73
926.80	22477.85
926.97	22153.62
927.15	22392.16
927.32	22044.75
927.49	21966.84
927.66	21846.26
927.83	22055.97
928.01	21756.88
928.18	21797.84
928.35	21427.41
928.52	21905.16
928.69	21402.75
928.87	21445.35
929.04	21178.04
929.21	21460.91
929.38	21100.96
929.55	21274.55
929.72	20852.50
929.90	21001.59
930.07	20904.27
930.24	20709.63
930.41	20616.90
930.58	20700.62
930.75	20623.70
930.93	20586.43
931.10	20441.60
931.27	20370.41
931.44	20155.13
931.61	20079.02
931.78	20038.23
931.95	20029.38
932.13	19561.79
932.30	19940.01
932.47	19365.84
932.64	19736.44
932.81	19502.72
932.98	19612.17
933.15	19478.97
933.33	19402.78
933.50	19433.67
933.67	19380.26
933.84	19208.80
934.01	19385.74
934.18	19098.54
934.35	19236.16
934.52	18945.43
934.70	19192.09
934.87	18879.00
935.04	18913.89
935.21	18797.32
935.38	18830.83
935.55	18522.40
935.72	18711.47
935.89	18362.58
936.06	18547.80
936.24	18124.52
936.41	18535.10
936.58	18094.38
936.75	18168.19
936.92	18006.48
937.09	18163.03
937.26	17801.35
937.43	17987.15
937.60	17755.23
937.77	17790.21
937.94	17738.44
938.12	17870.90
938.29	17511.36
938.46	17748.68
938.63	17337.45
938.80	17629.82
938.97	17297.88
939.14	17403.15
939.31	17093.08
939.48	17365.14
939.65	16963.90
939.82	17121.84
939.99	17093.41
940.16	17167.55
940.33	16843.89
940.50	16911.55
940.67	16688.08
940.85	16908.19
941.02	16556.60
941.19	16759.43
941.36	16388.67
941.53	16586.58
941.70	16379.00
941.87	16241.05
942.04	16223.52
942.21	16425.94
942.38	16148.32
942.55	16142.09
942.72	16109.57
942.89	16206.31
943.06	15906.98
943.23	15977.68
943.40	15810.81
943.57	15885.27
943.74	15782.22
943.91	15815.23
944.08	15549.08
944.25	15835.88
944.42	15389.83
944.59	15515.98
944.76	15408.34
944.93	15537.94
945.10	15204.28
945.27	15344.69
945.44	14955.41
945.61	15296.20
945.78	14916.91
945.95	15009.24
946.12	14726.70
946.29	15112.04
946.46	14841.38
946.63	14716.38
946.80	14745.21
946.97	14785.84
947.14	14479.30
947.31	14779.37
947.48	14446.04
947.65	14462.43
947.82	14304.65
947.99	14514.28
948.16	14069.63
948.33	14549.59
948.50	14117.47
948.67	14154.41
948.84	14074.71
949.01	14133.69
949.18	13923.32
949.35	14156.38
949.52	13764.64
949.68	14065.70
949.85	13869.99
950.02	13920.29
950.19	13641.19
950.36	13847.22
950.53	13625.38
950.70	13683.87
950.87	13488.09
951.04	13744.90
951.21	13247.90
951.38	13418.95
951.55	13285.83
951.72	13362.50
951.89	13142.31
952.06	13363.90
952.23	13061.94
952.39	13103.31
952.56	12796.77
952.73	12975.27
952.90	12815.78
953.07	13102.82
953.24	12650.63
953.41	12872.55
953.58	12456.40
953.75	12780.64
953.92	12431.50
954.09	12517.35
954.25	12241.77
954.42	12456.16
954.59	12077.94
954.76	12239.23
954.93	12047.14
955.10	12266.68
955.27	11950.14
955.44	12159.45
955.61	11927.94
955.77	12154.04
955.94	11914.84
956.11	12080.56
956.28	11934.99
956.45	11969.31
956.62	11778.93
956.79	11902.47
956.96	11733.63
957.12	11850.94
957.29	11573.56
957.46	11733.96
957.63	11446.51
957.80	11528.75
957.97	11260.06
958.14	11520.15
958.30	11133.09
958.47	11391.05
958.64	11126.61
958.81	11416.69
958.98	11030.61
959.15	11216.56
959.32	10988.83
959.48	11217.87
959.65	11032.33
959.82	11188.38
959.99	10789.52
960.16	11113.51
960.33	10960.24
960.49	11003.08
960.66	10625.27
960.83	10935.74
961.00	10676.55
961.17	10784.60
961.33	10471.92
961.50	10697.20
961.67	10429.49
961.84	10702.28
962.01	10350.60
962.18	10569.40
962.34	10335.36
962.51	10458.24
962.68	10184.96
962.85	10410.07
963.02	10029.89
963.18	10268.52
963.35	9971.23
963.52	10104.02
963.69	9933.22
963.86	10095.75
964.02	9684.84
964.19	9950.92
964.36	9659.20
964.53	9810.34
964.69	9563.03
964.86	9842.13
965.03	9486.19
965.20	9681.81
965.37	9355.53
965.53	9547.96
965.70	9405.01
965.87	9561.23
966.04	9299.66
966.20	9488.32
966.37	9297.04
966.54	9286.15
966.71	9267.39
966.87	9324.98
967.04	9131.24
967.21	9194.31
967.38	9044.24
967.54	9136.40
967.71	8931.03
967.88	9122.96
968.05	8920.71
968.21	8906.53
968.38	8782.43
968.55	8889.90
968.72	8709.36
968.88	8741.71
969.05	8730.90
969.22	8740.57
969.39	8553.87
969.55	8665.61
969.72	8481.46
969.89	8592.54
970.05	8455.90
970.22	8623.34
970.39	8416.41
970.56	8573.86
970.72	8414.94
970.89	8571.49
971.06	8314.34
971.22	8508.33
971.39	8258.23
971.56	8364.64
971.73	8167.71
971.89	8417.23
972.06	8137.24
972.23	8329.99
972.39	7970.28
972.56	8223.41
972.73	7774.99
972.89	7971.92
973.06	7870.34
973.23	7978.48
973.39	7718.79
973.56	7885.34
973.73	7644.82
973.89	7824.72
974.06	7511.79
974.23	7732.31
974.39	7499.50
974.56	7683.41
974.73	7435.60
974.89	7523.25
975.06	7350.57
975.23	7651.38
975.39	7332.87
975.56	7541.19
975.73	7337.13
975.89	7419.79
976.06	7218.02
976.23	7293.88
976.39	7208.77
976.56	7258.98
976.73	7111.20
976.89	7158.06
977.06	7035.02
977.23	7072.78
977.39	6905.34
977.56	7076.55
977.72	6745.35
977.89	6942.78
978.06	6831.04
978.22	6849.96
978.39	6707.02
978.56	6921.32
978.72	6592.58
978.89	6729.13
979.05	6659.01
979.22	6726.43
979.39	6482.07
979.55	6670.89
979.72	6443.81
979.88	6658.52
980.05	6384.26
980.22	6569.88
980.38	6331.50
980.55	6483.62
980.71	6230.90
980.88	6497.39
981.05	6205.43
981.21	6368.45
981.38	6142.35
981.54	6272.93
981.71	6077.96
981.88	6223.12
982.04	6019.23
982.21	6165.21
982.37	5950.25
982.54	6124.74
982.70	5902.25
982.87	6060.19
983.04	5764.95
983.20	6123.67
983.37	5795.26
983.53	5937.80
983.70	5776.01
983.86	5856.13
984.03	5698.92
984.20	5786.99
984.36	5729.07
984.53	5778.63
984.69	5587.68
984.86	5644.28
985.02	5526.57
985.19	5680.74
985.35	5394.84
985.52	5599.97
985.68	5440.31
985.85	5486.51
986.02	5393.45
986.18	5486.10
986.35	5297.52
986.51	5480.36
986.68	5264.26
986.84	5371.00
987.01	5214.13
987.17	5377.80
987.34	5137.45
987.50	5279.91
987.67	5122.22
987.83	5276.55
988.00	5071.51
988.16	5181.77
988.33	5059.22
988.49	5189.63
988.66	4944.70
988.82	5127.29
988.99	4972.71
989.15	5052.42
989.32	4870.81
989.48	5009.41
989.65	4806.09
989.81	4925.20
989.98	4759.40
990.14	4849.84
990.31	4686.74
990.47	4784.63
990.64	4649.38
990.80	4726.38
990.97	4603.42
991.13	4724.01
991.30	4552.72
991.46	4616.61
991.63	4504.88
991.79	4652.58
991.95	4393.71
992.12	4571.89
992.28	4381.67
992.45	4509.55
992.61	4354.31
992.78	4508.56
992.94	4349.80
993.11	4528.30
993.27	4325.72
993.44	4434.92
993.60	4278.78
993.76	4370.69
993.93	4219.72
994.09	4379.38
994.26	4211.69
994.42	4318.26
994.59	4146.24
994.75	4285.58
994.91	4151.97
995.08	4212.02
995.24	4112.40
995.41	4154.84
995.57	4095.53
995.74	4089.22
995.90	4033.60
996.06	4071.03
996.23	3979.12
996.39	4050.64
996.56	3924.56
996.72	4003.53
996.88	3904.74
997.05	3965.93
997.21	3790.05
997.38	3964.79
997.54	3853.05
997.70	3910.80
997.87	3795.54
998.03	3914.65
998.20	3810.37
998.36	3874.43
998.52	3757.61
998.69	3885.00
998.85	3797.10
999.02	3857.31
999.18	3770.06
999.34	3835.03
999.51	3757.29
999.67	3817.66
999.83	3724.85
1000.00	3799.72
1000.16	3692.90
1000.33	3760.23
1000.49	3682.00
1000.65	3743.60
1000.82	3654.72
1000.98	3690.85
1001.14	3619.50
1001.31	3675.69
1001.47	3625.23
1001.63	3657.18
1001.80	3575.59
1001.96	3581.24
1002.12	3542.74
1002.29	3622.53
1002.45	3527.59
1002.61	3567.97
1002.78	3492.11
1002.94	3553.55
1003.10	3510.79
1003.27	3537.83
1003.43	3519.15
1003.59	3538.40
1003.76	3483.10
1003.92	3515.95
1004.08	3477.86
1004.25	3520.13
1004.41	3441.57
1004.57	3475.81
1004.74	3438.05
1004.90	3508.09
1005.06	3413.80
1005.23	3469.75
1005.39	3427.48
1005.55	3481.96
1005.71	3421.01
1005.88	3463.44
1006.04	3413.96
1006.20	3456.48
1006.37	3402.09
1006.53	3424.61
1006.69	3392.26
1006.85	3409.29
1007.02	3372.76
1007.18	3404.63
1007.34	3370.14
1007.51	3411.18
1007.67	3349.90
1007.83	3371.12
1007.99	3336.55
1008.16	3376.94
1008.32	3335.57
1008.48	3374.56
1008.64	3350.56
1008.81	3366.45
1008.97	3325.08
1009.13	3346.05
1009.29	3324.67
1009.46	3340.24
1009.62	3308.37
1009.78	3340.89
1009.95	3330.90
1010.11	3331.31
1010.27	3297.56
1010.43	3335.40
1010.59	3325.00
1010.76	3303.87
1010.92	3291.00
1011.08	3316.15
1011.24	3269.05
1011.41	3307.72
1011.57	3274.21
1011.73	3302.96
1011.89	3283.96
1012.06	3307.55
1012.22	3262.50
1012.38	3301.41
1012.54	3272.65
1012.70	3278.80
1012.87	3271.34
1013.03	3285.68
1013.19	3270.03
1013.35	3277.73
1013.51	3236.45
1013.68	3266.26
1013.84	3240.79
1014.00	3268.48
1014.16	3247.67
1014.32	3274.05
1014.49	3255.78
1014.65	3269.87
1014.81	3229.48
1014.97	3252.67
1015.13	3235.95
1015.30	3243.33
1015.46	3250.54
1015.62	3241.61
1015.78	3231.37
1015.94	3248.98
1016.10	3233.99
1016.27	3257.66
1016.43	3253.24
1016.59	3248.00
1016.75	3235.87
1016.91	3238.90
1017.07	3222.60
1017.24	3241.20
1017.40	3223.26
1017.56	3241.12
1017.72	3228.99
1017.88	3231.86
1018.04	3226.70
1018.21	3233.41
1018.37	3231.04
1018.53	3227.43
1018.69	3220.55
1018.85	3215.39
1019.01	3217.77
1019.17	3240.79
1019.34	3215.80
1019.50	3238.82
1019.66	3210.64
1019.82	3215.56
1019.98	3203.35
1020.14	3221.95
1020.30	3201.88
1020.46	3216.87
1020.63	3212.36
1020.79	3219.00
1020.95	3212.28
1021.11	3227.60
1021.27	3214.25
1021.43	3201.96
1021.59	3214.66
1021.75	3219.08
1021.91	3181.07
1022.07	3206.71
1022.24	3198.03
1022.40	3222.77
1022.56	3198.44
1022.72	3213.10
1022.88	3211.30
1023.04	3221.62
1023.20	3201.38
1023.36	3199.01
1023.52	3188.52
1023.68	3214.98
1023.84	3199.66
1024.01	3221.13
1024.17	3197.53
1024.33	3208.18
1024.49	3211.38
1024.65	3205.48
1024.81	3190.90
1024.97	3202.04
1025.13	3197.78
1025.29	3218.51
1025.45	3201.47
1025.61	3223.58
1025.77	3201.30
1025.93	3213.26
1026.09	3189.18
1026.25	3220.55
1026.41	3185.66
1026.57	3201.47
1026.73	3179.84
1026.90	3220.72
1027.06	3204.83
1027.22	3204.99
1027.38	3204.83
1027.54	3190.74
1027.70	3189.51
1027.86	3191.88
1028.02	3201.96
1028.18	3211.30
1028.34	3188.52
1028.50	3196.47
1028.66	3192.37
1028.82	3199.66
1028.98	3189.51
1029.14	3191.80
1029.30	3202.86
1029.46	3187.13
1029.62	3200.89
1029.78	3193.44
1029.94	3204.91
1030.10	3203.02
1030.26	3180.99
1030.42	3195.32
1030.58	3202.94
1030.74	3196.06
1030.90	3178.78
1031.06	3198.11
1031.22	3183.28
1031.38	3212.69
1031.54	3191.80
1031.70	3200.40
1031.86	3186.07
1032.02	3194.59
1032.18	3183.12
1032.34	3204.83
1032.50	3189.02
1032.66	3197.70
1032.82	3202.12
1032.98	3193.93
1033.14	3209.33
1033.30	3204.58
1033.45	3199.34
1033.61	3211.05
1033.77	3171.73
1033.93	3203.92
1034.09	3189.34
1034.25	3191.39
1034.41	3179.10
1034.57	3192.95
1034.73	3195.16
1034.89	3206.46
1035.05	3189.83
1035.21	3195.57
1035.37	3183.44
1035.53	3205.32
1035.69	3175.25
1035.85	3202.61
1036.01	3190.57
1036.16	3178.78
1036.32	3199.83
1036.48	3199.42
1036.64	3194.83
1036.80	3181.72
1036.96	3179.76
1037.12	3193.60
1037.28	3179.35
1037.44	3182.71
1037.60	3168.70
1037.76	3186.97
1037.91	3193.60
1038.07	3193.19
1038.23	3182.87
1038.39	3193.68
1038.55	3179.10
1038.71	3194.59
1038.87	3185.25
1039.03	3190.16
1039.19	3182.05
1039.35	3196.63
1039.50	3191.72
1039.66	3183.77
1039.82	3175.01
1039.98	3187.79
1040.14	3182.71
1040.30	3191.14
1040.46	3187.46
1040.62	3190.82
1040.77	3188.03
1040.93	3192.05
1041.09	3185.16
1041.25	3193.27
1041.41	3183.77
1041.57	3208.84
1041.73	3208.84
1041.88	3208.84

