SpectraSuite Data File
++++++++++++++++++++++++++++++++++++
Date: Tue Sep 20 11:54:41 EDT 2022
User: Laboratoire
Dark Spectrum Present: No
Reference Spectrum Present: No
Number of Sampled Component Spectra: 1
Spectrometers: FLMT00174
Integration Time (usec): 15000 (FLMT00174)
Spectra Averaged: 25 (FLMT00174)
Boxcar Smoothing: 0 (FLMT00174)
Correct for Electrical Dark: No (FLMT00174)
Strobe/Lamp Enabled: No (FLMT00174)
Correct for Detector Non-linearity: No (FLMT00174)
Correct for Stray Light: No (FLMT00174)
Number of Pixels in Processed Spectrum: 3648
>>>>>Begin Processed Spectral Data<<<<<
345.74	3148.71
345.96	3148.71
346.18	3148.71
346.39	3188.28
346.61	3207.12
346.83	3204.33
347.05	3214.16
347.27	3186.56
347.49	3204.58
347.71	3210.15
347.93	3215.47
348.15	3220.72
348.36	3215.31
348.58	3222.11
348.80	3209.09
349.02	3218.10
349.24	3221.62
349.46	3305.26
349.68	3325.25
349.90	3330.73
350.11	3317.38
350.33	3324.43
350.55	3309.68
350.77	3319.59
350.99	3301.24
351.21	3344.91
351.43	3296.90
351.65	3334.99
351.86	3310.50
352.08	3325.82
352.30	3285.84
352.52	3329.10
352.74	3277.65
352.96	3305.18
353.18	3318.94
353.39	3317.79
353.61	3309.52
353.83	3333.44
354.05	3332.45
354.27	3320.17
354.49	3331.31
354.70	3311.32
354.92	3313.29
355.14	3304.93
355.36	3314.51
355.58	3313.04
355.80	3309.27
356.02	3338.35
356.23	3315.50
356.45	3329.51
356.67	3320.82
356.89	3329.92
357.11	3325.41
357.33	3338.60
357.54	3320.00
357.76	3300.51
357.98	3295.26
358.20	3322.95
358.42	3315.83
358.63	3312.22
358.85	3325.16
359.07	3333.93
359.29	3301.00
359.51	3309.85
359.73	3306.40
359.94	3316.89
360.16	3317.30
360.38	3310.09
360.60	3310.75
360.82	3327.13
361.03	3334.42
361.25	3333.19
361.47	3322.62
361.69	3334.91
361.91	3322.30
362.12	3313.04
362.34	3335.49
362.56	3311.65
362.78	3320.58
363.00	3337.53
363.21	3309.11
363.43	3327.13
363.65	3321.89
363.87	3326.80
364.09	3330.57
364.30	3320.41
364.52	3324.26
364.74	3341.14
364.96	3326.97
365.17	3319.59
365.39	3313.86
365.61	3320.82
365.83	3314.51
366.05	3317.22
366.26	3310.42
366.48	3321.97
366.70	3338.27
366.92	3319.59
367.13	3312.38
367.35	3329.83
367.57	3312.79
367.79	3333.03
368.01	3320.74
368.22	3332.78
368.44	3319.43
368.66	3334.09
368.88	3329.51
369.09	3316.40
369.31	3326.47
369.53	3319.59
369.75	3320.00
369.96	3340.40
370.18	3304.36
370.40	3352.36
370.62	3332.78
370.83	3338.27
371.05	3338.11
371.27	3342.69
371.49	3329.10
371.70	3335.24
371.92	3330.57
372.14	3335.16
372.36	3346.46
372.57	3356.05
372.79	3336.14
373.01	3332.45
373.22	3324.10
373.44	3339.25
373.66	3331.47
373.88	3350.72
374.09	3328.77
374.31	3315.01
374.53	3330.98
374.75	3365.22
374.96	3345.40
375.18	3356.13
375.40	3341.22
375.61	3330.49
375.83	3324.43
376.05	3345.97
376.27	3335.90
376.48	3324.34
376.70	3343.27
376.92	3346.22
377.13	3333.03
377.35	3349.41
377.57	3352.28
377.79	3337.78
378.00	3333.77
378.22	3354.90
378.44	3330.00
378.65	3357.93
378.87	3335.40
379.09	3355.15
379.30	3322.05
379.52	3347.77
379.74	3341.71
379.96	3353.51
380.17	3344.82
380.39	3331.64
380.61	3341.06
380.82	3334.75
381.04	3342.61
381.26	3378.08
381.47	3360.88
381.69	3371.61
381.91	3361.78
382.12	3368.09
382.34	3389.14
382.56	3380.46
382.77	3365.47
382.99	3365.55
383.21	3366.61
383.42	3373.17
383.64	3377.67
383.86	3387.42
384.07	3391.27
384.29	3375.13
384.51	3354.41
384.72	3391.76
384.94	3388.32
385.16	3396.92
385.37	3380.79
385.59	3383.33
385.81	3392.58
386.02	3380.62
386.24	3385.95
386.46	3398.15
386.67	3405.28
386.89	3411.26
387.11	3437.97
387.32	3410.28
387.54	3409.79
387.76	3436.16
387.97	3429.69
388.19	3429.61
388.40	3411.26
388.62	3396.84
388.84	3445.26
389.05	3436.08
389.27	3440.01
389.49	3451.89
389.70	3430.02
389.92	3448.21
390.14	3446.32
390.35	3450.99
390.57	3444.27
390.78	3448.12
391.00	3441.57
391.22	3442.55
391.43	3440.01
391.65	3456.23
391.86	3470.41
392.08	3482.94
392.30	3464.02
392.51	3465.65
392.73	3456.89
392.95	3484.00
393.16	3441.24
393.38	3476.06
393.59	3440.83
393.81	3484.58
394.03	3460.82
394.24	3475.57
394.46	3465.98
394.67	3480.56
394.89	3462.38
395.11	3505.30
395.32	3478.93
395.54	3502.52
395.75	3481.14
395.97	3468.36
396.19	3470.32
396.40	3467.54
396.62	3491.21
396.83	3488.59
397.05	3503.58
397.26	3498.42
397.48	3496.78
397.70	3494.82
397.91	3508.42
398.13	3500.88
398.34	3509.65
398.56	3541.76
398.78	3523.98
398.99	3557.08
399.21	3506.37
399.42	3543.56
399.64	3502.11
399.85	3538.89
400.07	3523.16
400.29	3552.65
400.50	3561.42
400.72	3569.28
400.93	3565.84
401.15	3546.10
401.36	3553.88
401.58	3583.37
401.79	3594.92
402.01	3593.45
402.23	3579.19
402.44	3630.39
402.66	3611.31
402.87	3613.76
403.09	3624.99
403.30	3617.12
403.52	3625.23
403.73	3627.94
403.95	3636.21
404.16	3663.16
404.38	3666.44
404.60	3683.97
404.81	3699.70
405.03	3703.79
405.24	3715.26
405.46	3726.89
405.67	3725.42
405.89	3740.00
406.10	3739.75
406.32	3763.18
406.53	3773.18
406.75	3787.68
406.96	3763.43
407.18	3790.30
407.39	3765.97
407.61	3812.83
407.82	3787.10
408.04	3844.69
408.25	3831.18
408.47	3856.41
408.68	3872.05
408.90	3855.34
409.12	3865.42
409.33	3908.10
409.55	3864.44
409.76	3894.58
409.98	3885.08
410.19	3906.54
410.41	3927.68
410.62	3918.34
410.84	3933.00
411.05	3939.06
411.27	3946.27
411.48	3943.00
411.70	3954.96
411.91	3968.23
412.12	3967.41
412.34	3969.70
412.55	3987.89
412.77	3951.02
412.98	3979.29
413.20	3976.17
413.41	3984.20
413.63	3981.99
413.84	3954.22
414.06	4002.06
414.27	3995.59
414.49	4001.24
414.70	3991.82
414.92	3988.46
415.13	3967.00
415.35	4017.13
415.56	3998.54
415.78	3995.42
415.99	4010.00
416.21	3993.05
416.42	4017.95
416.63	4024.83
416.85	4013.36
417.06	3995.34
417.28	4010.74
417.49	4035.65
417.71	4028.85
417.92	4002.30
418.14	4025.57
418.35	4036.71
418.57	4025.00
418.78	4020.90
418.99	4014.18
419.21	4034.50
419.42	4046.87
419.64	4035.40
419.85	4047.28
420.07	4086.52
420.28	4045.39
420.50	4071.44
420.71	4068.66
420.92	4069.15
421.14	4091.27
421.35	4076.03
421.57	4077.59
421.78	4105.11
422.00	4090.04
422.21	4129.36
422.42	4119.45
422.64	4109.62
422.85	4147.46
423.07	4163.11
423.28	4152.38
423.50	4173.35
423.71	4187.11
423.92	4214.56
424.14	4212.02
424.35	4217.42
424.57	4240.93
424.78	4267.97
424.99	4283.53
425.21	4282.14
425.42	4292.71
425.64	4285.66
425.85	4322.03
426.06	4332.36
426.28	4349.15
426.49	4410.92
426.71	4386.50
426.92	4414.44
427.13	4440.24
427.35	4457.28
427.56	4488.57
427.78	4478.42
427.99	4515.36
428.20	4555.99
428.42	4587.20
428.63	4602.60
428.84	4580.57
429.06	4650.20
429.27	4664.95
429.49	4692.06
429.70	4742.03
429.91	4728.10
430.13	4755.38
430.34	4792.41
430.56	4831.65
430.77	4859.58
430.98	4839.51
431.20	4924.22
431.41	4937.00
431.62	4960.10
431.84	4952.32
432.05	4996.72
432.26	5010.07
432.48	5019.33
432.69	5100.34
432.91	5101.33
433.12	5117.79
433.33	5171.12
433.55	5237.39
433.76	5243.54
433.97	5232.40
434.19	5267.79
434.40	5337.91
434.61	5342.17
434.83	5365.27
435.04	5383.13
435.25	5429.41
435.47	5445.30
435.68	5402.79
435.89	5528.20
436.11	5504.37
436.32	5504.94
436.53	5564.66
436.75	5517.97
436.96	5569.00
437.17	5523.62
437.39	5576.95
437.60	5598.98
437.81	5617.17
438.03	5609.80
438.24	5641.01
438.45	5722.76
438.67	5686.47
438.88	5700.97
439.09	5782.32
439.31	5726.94
439.52	5762.16
439.73	5717.93
439.94	5678.36
440.16	5722.60
440.37	5710.56
440.58	5783.96
440.80	5769.78
441.01	5693.44
441.22	5838.27
441.44	5795.75
441.65	5769.54
441.86	5766.18
442.08	5831.63
442.29	5757.09
442.50	5795.59
442.71	5759.79
442.93	5785.51
443.14	5791.90
443.35	5810.50
443.57	5751.52
443.78	5788.13
443.99	5808.20
444.20	5769.29
444.42	5827.37
444.63	5795.34
444.84	5824.34
445.06	5859.65
445.27	5783.55
445.48	5760.20
445.69	5780.27
445.91	5802.22
446.12	5739.31
446.33	5789.28
446.54	5829.50
446.76	5762.98
446.97	5787.07
447.18	5772.90
447.39	5816.48
447.61	5818.77
447.82	5845.97
448.03	5825.16
448.25	5858.91
448.46	5878.33
448.67	5915.35
448.88	5870.38
449.10	5942.30
449.31	5906.26
449.52	5909.95
449.73	5921.41
449.95	5995.96
450.16	5910.19
450.37	6011.44
450.58	6093.12
450.79	5962.13
451.01	5993.99
451.22	5978.35
451.43	6017.67
451.64	6096.64
451.86	6076.32
452.07	6100.08
452.28	6146.61
452.49	6210.26
452.71	6146.86
452.92	6125.56
453.13	6211.98
453.34	6236.39
453.55	6298.24
453.77	6337.15
453.98	6330.27
454.19	6313.56
454.40	6362.71
454.62	6416.78
454.83	6383.19
455.04	6502.46
455.25	6430.13
455.46	6645.90
455.68	6554.73
455.89	6587.33
456.10	6596.43
456.31	6691.04
456.52	6712.26
456.74	6738.31
456.95	6865.45
457.16	6832.27
457.37	6893.22
457.58	6985.46
457.80	6957.61
458.01	6955.15
458.22	7237.85
458.43	7135.45
458.64	7189.68
458.86	7137.66
459.07	7270.62
459.28	7279.14
459.49	7371.87
459.70	7588.46
459.91	7549.55
460.13	7547.09
460.34	7611.23
460.55	7641.95
460.76	7832.42
460.97	7832.91
461.19	7835.45
461.40	8057.86
461.61	7999.12
461.82	8063.51
462.03	8151.82
462.24	8184.26
462.46	8255.44
462.67	8274.29
462.88	8403.80
463.09	8481.62
463.30	8597.78
463.51	8553.87
463.72	8766.62
463.94	8841.33
464.15	8884.83
464.36	8819.70
464.57	9096.01
464.78	9152.54
464.99	9215.04
465.20	9216.51
465.42	9386.99
465.63	9447.85
465.84	9444.74
466.05	9617.59
466.26	9726.62
466.47	9796.01
466.68	9762.34
466.90	10006.21
467.11	9957.31
467.32	10119.18
467.53	10255.08
467.74	10121.80
467.95	10230.26
468.16	10437.76
468.37	10540.24
468.59	10563.83
468.80	10753.97
469.01	10642.39
469.22	10821.71
469.43	11025.94
469.64	10944.51
469.85	11110.07
470.06	11146.52
470.28	11312.82
470.49	11078.53
470.70	11316.34
470.91	11561.11
471.12	11441.59
471.33	11660.89
471.54	11582.41
471.75	11644.18
471.96	11869.37
472.17	11866.26
472.39	12169.19
472.60	11856.92
472.81	12216.87
473.02	12128.89
473.23	12313.37
473.44	12333.69
473.65	12288.71
473.86	12382.02
474.07	12409.71
474.28	12438.05
474.49	12733.45
474.71	12626.79
474.92	12767.69
475.13	12642.60
475.34	12708.14
475.55	12686.67
475.76	12792.60
475.97	13073.25
476.18	12979.86
476.39	13118.88
476.60	13170.81
476.81	13220.95
477.02	13298.61
477.23	13255.76
477.44	13225.29
477.65	13357.18
477.87	13477.93
478.08	13487.59
478.29	13464.74
478.50	13713.69
478.71	13561.98
478.92	13673.30
479.13	13682.07
479.34	13707.96
479.55	13780.70
479.76	13745.23
479.97	13776.69
480.18	14074.87
480.39	13795.69
480.60	14048.16
480.81	14055.54
481.02	14072.25
481.23	14066.51
481.44	14244.93
481.65	14240.59
481.86	14468.08
482.07	14106.98
482.28	14669.27
482.49	14408.53
482.71	14397.06
482.92	14553.93
483.13	14646.91
483.34	14540.41
483.55	14635.11
483.76	14658.05
483.97	14816.15
484.18	14820.66
484.39	14886.03
484.60	14871.94
484.81	15071.82
485.02	14984.09
485.23	15159.23
485.44	15240.98
485.65	15349.12
485.86	15223.94
486.07	15455.77
486.28	15403.59
486.49	15564.89
486.70	15622.89
486.91	15726.68
487.12	15683.26
487.33	15655.08
487.54	15900.10
487.75	15992.18
487.96	16018.88
488.17	15906.25
488.38	16186.49
488.59	16172.24
488.80	16334.84
489.01	16332.22
489.22	16559.30
489.43	16527.11
489.64	16436.42
489.85	16779.99
490.06	16606.98
490.26	16889.02
490.47	16817.10
490.68	17033.53
490.89	17305.58
491.10	17058.60
491.31	17343.51
491.52	17553.39
491.73	17562.32
491.94	17497.60
492.15	17730.74
492.36	17896.22
492.57	17899.49
492.78	17948.15
492.99	18055.38
493.20	18260.18
493.41	18342.75
493.62	18467.35
493.83	18542.88
494.04	18681.65
494.25	18895.22
494.46	18948.63
494.67	18919.87
494.88	19176.11
495.08	19272.45
495.29	19351.91
495.50	19690.24
495.71	19596.93
495.92	19864.64
496.13	20053.63
496.34	20004.80
496.55	20220.58
496.76	20554.64
496.97	20282.10
497.18	20732.98
497.39	20757.39
497.60	21150.85
497.81	20909.19
498.02	21210.32
498.22	21163.79
498.43	21713.79
498.64	21785.06
498.85	21857.64
499.06	22033.44
499.27	22433.45
499.48	22010.99
499.69	22439.92
499.90	22648.24
500.11	22914.80
500.32	23267.96
500.52	23193.74
500.73	23653.55
500.94	23769.13
501.15	23943.95
501.36	23996.95
501.57	24082.56
501.78	24386.97
501.99	24747.24
502.20	24766.41
502.41	24954.34
502.61	25004.14
502.82	25487.54
503.03	25373.19
503.24	25852.90
503.45	25780.98
503.66	26253.98
503.87	26335.65
504.08	26693.55
504.28	26642.76
504.49	26938.98
504.70	27175.15
504.91	27359.88
505.12	27312.61
505.33	27944.12
505.54	28005.24
505.75	28222.65
505.95	28517.23
506.16	28590.79
506.37	28565.07
506.58	29118.10
506.79	28914.53
507.00	29500.09
507.21	29315.94
507.41	29434.64
507.62	29703.17
507.83	30215.16
508.04	30055.33
508.25	30534.72
508.46	30364.90
508.67	30943.82
508.87	30752.79
509.08	31328.76
509.29	31313.85
509.50	31608.68
509.71	31746.38
509.92	31958.72
510.12	31801.51
510.33	32117.64
510.54	32108.55
510.75	32436.22
510.96	32670.18
511.17	32960.58
511.37	32866.95
511.58	33187.58
511.79	33094.11
512.00	33144.08
512.21	33730.45
512.42	33693.43
512.62	33762.89
512.83	34081.56
513.04	33960.07
513.25	34352.30
513.46	33671.88
513.66	34629.02
513.87	34314.21
514.08	34713.40
514.29	34435.53
514.50	34550.22
514.71	34796.46
514.91	34570.37
515.12	34690.54
515.33	35003.06
515.54	34817.19
515.75	35175.17
515.95	34852.82
516.16	34911.15
516.37	35327.13
516.58	35383.08
516.78	35140.77
516.99	35310.91
517.20	35266.02
517.41	35285.52
517.62	35293.30
517.82	35205.32
518.03	35580.34
518.24	35876.81
518.45	35304.11
518.66	35650.38
518.86	35341.06
519.07	35641.46
519.28	35001.10
519.49	35478.36
519.69	35527.75
519.90	35500.96
520.11	35442.88
520.32	35331.56
520.52	35623.35
520.73	35237.43
520.94	35560.85
521.15	35537.75
521.36	35060.65
521.56	35592.06
521.77	34945.31
521.98	35375.71
522.19	34879.45
522.39	35102.59
522.60	34954.48
522.81	34981.35
523.02	34755.50
523.22	34873.39
523.43	34973.24
523.64	34754.85
523.84	34750.59
524.05	35002.08
524.26	34761.07
524.47	34582.00
524.67	34637.95
524.88	34625.01
525.09	34845.94
525.30	34522.85
525.50	34354.84
525.71	34434.79
525.92	34356.56
526.13	34614.52
526.33	34241.38
526.54	34020.69
526.75	34220.49
526.95	34386.87
527.16	33722.02
527.37	34243.68
527.58	34253.92
527.78	34110.64
527.99	34166.59
528.20	34287.91
528.40	33989.15
528.61	33778.54
528.82	34093.44
529.03	33882.58
529.23	33707.85
529.44	33913.46
529.65	33706.94
529.85	33700.47
530.06	33580.30
530.27	33670.16
530.47	33213.30
530.68	33852.27
530.89	33232.72
531.09	33737.75
531.30	33498.71
531.51	33177.91
531.72	33605.86
531.92	33505.18
532.13	33585.95
532.34	33457.91
532.54	33389.51
532.75	33521.73
532.96	33385.25
533.16	33581.36
533.37	33714.48
533.58	33399.99
533.78	33627.24
533.99	33588.41
534.20	33339.95
534.40	33526.40
534.61	33608.89
534.82	33650.50
535.02	33660.17
535.23	33633.38
535.44	33731.68
535.64	33652.88
535.85	33714.48
536.06	33741.43
536.26	33675.00
536.47	33639.36
536.68	34165.28
536.88	33630.27
537.09	34162.08
537.29	33616.67
537.50	34297.99
537.71	33925.67
537.91	34134.15
538.12	34286.27
538.33	34055.59
538.53	34161.35
538.74	34242.45
538.95	34306.34
539.15	34250.07
539.36	34461.66
539.56	34747.89
539.77	34366.47
539.98	34537.68
540.18	34741.99
540.39	34614.60
540.60	34877.32
540.80	35041.89
541.01	35028.05
541.21	35040.09
541.42	35224.41
541.63	35175.99
541.83	35443.38
542.04	35470.57
542.25	35510.14
542.45	35674.55
542.66	35686.51
542.86	35891.23
543.07	35226.86
543.28	35988.63
543.48	35993.05
543.69	36244.05
543.89	36181.05
544.10	36706.48
544.31	36552.23
544.51	36459.91
544.72	36788.07
544.92	36744.90
545.13	37237.31
545.33	37221.18
545.54	37190.54
545.75	37498.88
545.95	37414.59
546.16	37527.31
546.36	38017.75
546.57	37404.35
546.78	36928.89
546.98	37598.58
547.19	37105.59
547.39	38060.27
547.60	38420.96
547.80	38950.89
548.01	39101.21
548.22	38858.73
548.42	39123.33
548.63	39484.92
548.83	39455.51
549.04	39770.57
549.24	39678.00
549.45	39995.52
549.65	40430.18
549.86	40014.93
550.07	40329.75
550.27	40759.90
550.48	40928.33
550.68	40944.55
550.89	41123.54
551.09	41441.79
551.30	41413.29
551.50	41802.24
551.71	41661.83
551.91	41860.73
552.12	42156.29
552.33	42705.39
552.53	42409.58
552.74	42972.94
552.94	43260.06
553.15	43112.53
553.35	43493.04
553.56	43190.60
553.76	43843.49
553.97	43635.17
554.17	44029.85
554.38	44824.71
554.58	44409.30
554.79	45027.71
554.99	44672.59
555.20	44963.81
555.40	45548.05
555.61	45376.27
555.81	45313.52
556.02	46333.82
556.22	46263.12
556.43	46134.35
556.63	46402.71
556.84	46407.87
557.04	47123.76
557.25	46659.69
557.45	47250.33
557.66	47483.30
557.86	47472.98
558.07	48145.94
558.27	47936.97
558.48	48205.50
558.68	48340.66
558.89	48773.11
559.09	48946.94
559.30	48885.59
559.50	49245.05
559.71	49026.98
559.91	49807.26
560.12	49600.49
560.32	49815.69
560.53	50189.98
560.73	50044.16
560.94	50612.03
561.14	50324.57
561.35	51020.72
561.55	50881.54
561.76	51141.96
561.96	50755.87
562.17	51387.71
562.37	51747.75
562.57	51578.42
562.78	51684.01
562.98	52079.85
563.19	52216.08
563.39	52488.21
563.60	52708.08
563.80	52319.87
564.01	53032.64
564.21	52744.62
564.42	52873.23
564.62	53158.80
564.82	53506.54
565.03	53166.91
565.23	53328.94
565.44	53645.56
565.64	53431.10
565.85	53944.07
566.05	53706.75
566.25	54076.21
566.46	53832.01
566.66	54080.87
566.87	54208.01
567.07	54180.98
567.28	54392.49
567.48	54781.20
567.68	54056.22
567.89	55039.00
568.09	54563.21
568.30	54593.69
568.50	54983.70
568.71	54857.71
568.91	55187.76
569.11	54812.00
569.32	54946.59
569.52	55122.23
569.73	54554.36
569.93	55089.79
570.13	54982.64
570.34	54778.17
570.54	55336.03
570.75	54977.56
570.95	55013.52
571.15	54854.19
571.36	55516.75
571.56	54884.74
571.77	54849.03
571.97	54303.20
572.17	55162.20
572.38	54934.55
572.58	55063.57
572.79	54816.83
572.99	55046.53
573.19	54988.53
573.40	54938.15
573.60	54969.94
573.81	54759.65
574.01	55093.64
574.21	54675.28
574.42	54614.25
574.62	54289.85
574.82	54641.77
575.03	54338.18
575.23	54788.57
575.43	54242.25
575.64	54027.22
575.84	54435.50
576.05	53829.63
576.25	54015.50
576.45	53719.53
576.66	54306.48
576.86	53604.03
577.06	53954.47
577.27	53652.03
577.47	53677.18
577.67	53523.75
577.88	52894.85
578.08	53469.92
578.28	53396.61
578.49	53119.72
578.69	53173.71
578.89	52722.99
579.10	52802.70
579.30	53263.33
579.50	52615.92
579.71	52039.05
579.91	52681.87
580.11	52174.22
580.32	52170.45
580.52	52084.02
580.72	52491.00
580.93	51692.04
581.13	51561.55
581.33	51933.78
581.54	51305.39
581.74	51386.73
581.94	51358.39
582.15	51608.81
582.35	51155.39
582.55	51185.78
582.76	50734.41
582.96	51038.41
583.16	50563.04
583.37	50682.56
583.57	50215.37
583.77	50646.27
583.97	49579.11
584.18	50487.51
584.38	50198.01
584.58	49820.85
584.79	50122.48
584.99	49922.43
585.19	49741.64
585.40	49490.56
585.60	49724.68
585.80	49051.64
586.00	49238.58
586.21	49041.15
586.41	49045.90
586.61	49108.98
586.82	48958.09
587.02	48669.32
587.22	48942.85
587.42	48221.64
587.63	48765.58
587.83	47932.38
588.03	48173.71
588.23	47719.31
588.44	47969.00
588.64	47705.88
588.84	47937.05
589.05	47992.51
589.25	47895.76
589.45	47669.34
589.65	47363.21
589.86	47698.67
590.06	47501.08
590.26	47169.72
590.46	47379.18
590.67	46734.16
590.87	47257.78
591.07	47317.09
591.27	46728.75
591.48	47128.10
591.68	46397.80
591.88	47232.55
592.08	46337.10
592.29	46728.34
592.49	46410.17
592.69	46581.46
592.89	46202.09
593.10	46168.67
593.30	46026.54
593.50	46350.04
593.70	45464.25
593.90	46042.11
594.11	45815.68
594.31	45875.32
594.51	45996.23
594.71	45965.10
594.92	45941.84
595.12	45707.55
595.32	45704.52
595.52	45916.44
595.72	45246.84
595.93	45847.06
596.13	45537.65
596.33	45229.47
596.53	45670.52
596.73	45387.49
596.94	45264.61
597.14	45578.69
597.34	45316.80
597.54	45626.78
597.74	45141.00
597.95	45192.77
598.15	45246.76
598.35	45342.52
598.55	45417.97
598.75	45035.32
598.96	45535.03
599.16	45105.45
599.36	45101.35
599.56	45027.46
599.76	45015.09
599.97	45377.58
600.17	45127.73
600.37	45190.81
600.57	44711.91
600.77	45473.26
600.97	45126.99
601.18	45550.84
601.38	45176.47
601.58	45424.68
601.78	45222.51
601.98	45014.44
602.18	45350.79
602.39	45731.14
602.59	45406.83
602.79	45212.76
602.99	45328.84
603.19	45339.00
603.39	45183.43
603.60	45186.63
603.80	45322.86
604.00	45180.98
604.20	45369.47
604.40	45511.27
604.60	45314.99
604.80	45376.02
605.01	45541.25
605.21	45421.49
605.41	45447.79
605.61	45269.04
605.81	45585.24
606.01	45888.75
606.21	45440.99
606.42	45811.91
606.62	45537.98
606.82	45982.71
607.02	45760.14
607.22	46018.43
607.42	46285.16
607.62	45812.08
607.82	46150.40
608.03	46110.43
608.23	46038.91
608.43	45952.81
608.63	46534.93
608.83	46420.24
609.03	46385.02
609.23	46452.35
609.43	46682.38
609.63	46459.40
609.84	46344.22
610.04	46993.59
610.24	46788.96
610.44	46904.63
610.64	46812.22
610.84	47102.54
611.04	47548.10
611.24	47324.38
611.44	46885.87
611.64	47480.52
611.85	47517.95
612.05	47464.05
612.25	47693.67
612.45	47543.59
612.65	47922.71
612.85	47936.89
613.05	47706.20
613.25	48211.40
613.45	48091.22
613.65	48180.02
613.85	47968.51
614.05	48404.48
614.25	48659.08
614.46	48378.18
614.66	48267.43
614.86	48301.02
615.06	48667.60
615.26	48950.22
615.46	48336.73
615.66	49067.20
615.86	49214.57
616.06	49017.97
616.26	49131.18
616.46	49786.78
616.66	49380.13
616.86	49943.49
617.06	49508.50
617.26	50189.90
617.46	49947.09
617.66	49786.94
617.86	49823.31
618.07	50213.57
618.27	50202.35
618.47	50251.09
618.67	50516.18
618.87	50734.82
619.07	50494.80
619.27	50579.18
619.47	50760.54
619.67	51323.98
619.87	51045.05
620.07	51509.20
620.27	51652.97
620.47	51445.30
620.67	51715.55
620.87	51797.14
621.07	52099.26
621.27	52042.16
621.47	51770.60
621.67	52240.00
621.87	51997.11
622.07	52654.34
622.27	52559.81
622.47	52350.26
622.67	52531.79
622.87	52264.33
623.07	52879.04
623.27	53345.82
623.47	52588.81
623.67	53198.61
623.87	53770.98
624.07	53695.45
624.27	53426.67
624.47	53894.10
624.67	53838.48
624.87	54128.31
625.07	53816.77
625.27	54543.14
625.47	54200.64
625.67	54149.19
625.87	54504.80
626.07	54473.02
626.27	54876.22
626.47	54842.96
626.67	54741.39
626.87	54621.21
627.07	55165.07
627.27	55141.56
627.47	55441.71
627.67	55311.79
627.87	55446.46
628.07	55841.80
628.27	55669.85
628.47	55497.74
628.67	56231.16
628.86	56470.44
629.06	56137.12
629.26	56102.96
629.46	56702.03
629.66	56618.80
629.86	56097.71
630.06	56677.78
630.26	56676.14
630.46	57193.30
630.66	56655.25
630.86	56945.16
631.06	56951.55
631.26	56817.94
631.46	57558.41
631.66	57443.97
631.86	57206.65
632.06	57834.56
632.26	57475.83
632.45	57639.34
632.65	57787.21
632.85	58085.47
633.05	57921.39
633.25	58174.68
633.45	57833.41
633.65	58089.65
633.85	58774.00
634.05	57730.76
634.25	58259.47
634.45	58313.70
634.65	58699.86
634.84	58296.99
635.04	58562.49
635.24	58234.24
635.44	58644.40
635.64	58422.65
635.84	58824.05
636.04	58690.93
636.24	58822.66
636.44	58904.74
636.64	58260.37
636.84	59406.66
637.03	58661.69
637.23	59158.44
637.43	59183.43
637.63	58938.25
637.83	59259.61
638.03	59208.41
638.23	58785.06
638.43	59216.52
638.62	59576.15
638.82	58594.93
639.02	59564.60
639.22	59139.77
639.42	59537.48
639.62	59026.56
639.82	59259.94
640.02	59334.65
640.21	59417.14
640.41	58859.93
640.61	59333.34
640.81	59207.51
641.01	59176.96
641.21	58959.79
641.41	59610.72
641.61	59023.20
641.80	59169.50
642.00	59400.10
642.20	59424.43
642.40	58765.81
642.60	59245.93
642.80	59364.72
642.99	58843.63
643.19	59262.07
643.39	58605.74
643.59	59005.01
643.79	58727.72
643.99	59100.28
644.19	58859.85
644.38	58368.58
644.58	58809.31
644.78	58585.42
644.98	58526.03
645.18	58749.26
645.38	59009.84
645.57	58513.25
645.77	58597.30
645.97	58267.91
646.17	58623.52
646.37	58428.96
646.56	58144.13
646.76	58171.32
646.96	58142.65
647.16	57851.59
647.36	57896.08
647.55	57621.40
647.75	57717.58
647.95	57330.67
648.15	57641.72
648.35	57451.83
648.55	57516.14
648.74	57384.08
648.94	57198.78
649.14	57485.34
649.34	56951.88
649.54	56796.97
649.73	56771.74
649.93	56503.46
650.13	56585.95
650.33	56247.13
650.52	56541.30
650.72	56712.76
650.92	56274.82
651.12	55918.39
651.32	56219.61
651.51	56212.89
651.71	56112.71
651.91	55703.03
652.11	55461.29
652.30	55268.78
652.50	55780.77
652.70	55665.92
652.90	55200.79
653.10	55493.15
653.29	55161.22
653.49	55384.12
653.69	54843.78
653.89	54988.70
654.08	54787.01
654.28	55076.27
654.48	54654.72
654.68	54733.69
654.87	54451.88
655.07	54130.60
655.27	54546.58
655.47	53962.34
655.66	53902.70
655.86	53697.74
656.06	54067.52
656.26	53064.51
656.45	53368.84
656.65	53280.77
656.85	53047.22
657.04	52728.97
657.24	52689.32
657.44	52504.27
657.64	53001.35
657.83	51900.12
658.03	52431.36
658.23	52277.43
658.43	51994.24
658.62	51995.96
658.82	51624.46
659.02	51524.03
659.21	51576.21
659.41	51142.20
659.61	51630.44
659.81	51072.74
660.00	50794.87
660.20	51047.01
660.40	50752.60
660.59	50718.68
660.79	50275.58
660.99	50628.90
661.19	50561.32
661.38	50364.88
661.58	49674.22
661.78	49976.66
661.97	49648.58
662.17	50083.98
662.37	49374.89
662.56	49270.11
662.76	49203.27
662.96	49197.04
663.15	49204.58
663.35	49038.20
663.55	48735.92
663.74	48465.84
663.94	48867.73
664.14	48187.39
664.33	48492.13
664.53	48125.30
664.73	48519.98
664.93	47648.37
665.12	48131.93
665.32	47748.15
665.52	47740.85
665.71	47373.78
665.91	47443.74
666.10	47093.37
666.30	47280.23
666.50	46841.63
666.69	46756.93
666.89	47060.19
667.09	47125.48
667.28	46589.57
667.48	46367.81
667.68	46423.60
667.87	46281.55
668.07	45929.55
668.27	46264.68
668.46	46127.30
668.66	45741.71
668.86	46052.02
669.05	45547.81
669.25	45739.50
669.44	45349.97
669.64	45206.86
669.84	45317.70
670.03	45617.52
670.23	45144.60
670.43	45040.89
670.62	44913.10
670.82	44748.77
671.01	44935.79
671.21	44536.44
671.41	44538.65
671.60	44693.15
671.80	44769.58
672.00	44410.78
672.19	44628.35
672.39	44520.22
672.58	44307.56
672.78	44125.45
672.98	44419.05
673.17	44003.48
673.37	43298.81
673.56	43572.17
673.76	43672.52
673.96	43819.49
674.15	43518.11
674.35	43611.25
674.54	43331.91
674.74	43213.70
674.94	43182.08
675.13	43195.27
675.33	42779.53
675.52	43228.36
675.72	42980.06
675.91	42967.86
676.11	43216.07
676.31	42572.27
676.50	42671.23
676.70	42472.41
676.89	42575.63
677.09	42617.49
677.28	42539.67
677.48	42038.57
677.68	42411.71
677.87	42086.25
678.07	42012.36
678.26	42012.19
678.46	42045.13
678.65	41809.36
678.85	42156.04
679.04	41615.71
679.24	41761.93
679.44	41553.29
679.63	41716.47
679.83	41511.92
680.02	41533.05
680.22	41251.25
680.41	41520.85
680.61	41232.98
680.80	41166.88
681.00	41283.45
681.19	41186.04
681.39	40976.91
681.59	40922.10
681.78	40790.95
681.98	41072.59
682.17	40558.55
682.37	40916.12
682.56	40511.20
682.76	40890.73
682.95	40627.28
683.15	40700.02
683.34	40486.54
683.54	40648.82
683.73	40583.04
683.93	40140.02
684.12	40423.63
684.32	40467.62
684.51	39925.64
684.71	40253.97
684.90	40122.57
685.10	40081.04
685.29	39955.21
685.49	40158.62
685.68	39994.45
685.88	39963.49
686.07	39634.50
686.27	40179.34
686.46	39995.52
686.66	39793.84
686.85	40059.66
687.05	39811.94
687.24	39677.35
687.44	40047.54
687.63	39870.67
687.83	39466.08
688.02	39866.42
688.22	39963.08
688.41	39705.94
688.61	39648.59
688.80	39832.58
689.00	39425.61
689.19	39331.32
689.39	39752.30
689.58	39708.56
689.77	39590.84
689.97	39693.98
690.16	39531.29
690.36	39131.28
690.55	38996.85
690.75	39617.46
690.94	39193.45
691.14	39332.71
691.33	38875.94
691.53	39281.35
691.72	39111.45
691.91	39306.66
692.11	39262.92
692.30	39407.59
692.50	39428.64
692.69	39116.37
692.89	39229.01
693.08	39096.62
693.28	38963.34
693.47	39181.98
693.66	39120.14
693.86	39070.16
694.05	39041.33
694.25	39193.37
694.44	39280.70
694.64	39128.16
694.83	39176.00
695.02	39238.75
695.22	39414.96
695.41	39103.75
695.61	38909.11
695.80	38879.21
695.99	38869.71
696.19	38951.87
696.38	38960.80
696.58	38617.07
696.77	39223.11
696.96	39038.13
697.16	38883.72
697.35	39004.71
697.55	39032.65
697.74	38888.14
697.93	39365.65
698.13	38975.47
698.32	39138.08
698.52	38986.61
698.71	38587.17
698.90	39195.83
699.10	38817.86
699.29	38986.44
699.49	39348.93
699.68	39063.45
699.87	39085.89
700.07	39382.28
700.26	39133.00
700.45	39070.66
700.65	38855.54
700.84	39308.22
701.04	38917.71
701.23	39238.75
701.42	39003.89
701.62	38874.71
701.81	39097.77
702.00	38986.61
702.20	38814.74
702.39	39061.65
702.58	39321.41
702.78	39115.79
702.97	39158.31
703.17	39274.39
703.36	39258.09
703.55	39146.35
703.75	39124.48
703.94	39313.30
704.13	39089.50
704.33	38917.22
704.52	39395.14
704.71	39271.03
704.91	39405.70
705.10	39286.84
705.29	39456.25
705.49	39483.53
705.68	39566.84
705.87	39541.93
706.07	39172.81
706.26	39544.23
706.45	39144.71
706.65	39098.26
706.84	39474.76
707.03	39818.16
707.23	39244.32
707.42	39234.66
707.61	39695.61
707.80	39377.69
708.00	39488.93
708.19	39391.78
708.38	39829.88
708.58	39208.61
708.77	39922.04
708.96	39445.02
709.16	39483.61
709.35	40141.33
709.54	39696.11
709.74	39558.40
709.93	39225.16
710.12	39943.42
710.31	40041.97
710.51	39675.87
710.70	39773.27
710.89	39866.58
711.09	39391.61
711.28	39447.73
711.47	39901.07
711.66	39830.45
711.86	39822.83
712.05	39882.47
712.24	40127.08
712.43	39737.39
712.63	39420.12
712.82	40006.99
713.01	39883.21
713.21	39600.51
713.40	39663.50
713.59	40102.42
713.78	39568.48
713.98	40103.24
714.17	39824.80
714.36	39975.61
714.55	39586.99
714.75	39707.49
714.94	39893.37
715.13	40163.37
715.32	39719.29
715.52	40087.92
715.71	39815.87
715.90	39958.08
716.09	39930.39
716.29	40238.08
716.48	40279.20
716.67	39837.33
716.86	40198.51
717.06	40183.77
717.25	40392.66
717.44	40502.43
717.63	40380.62
717.82	39965.05
718.02	40227.92
718.21	40416.75
718.40	40534.63
718.59	40334.17
718.79	40165.09
718.98	40213.42
719.17	40477.37
719.36	40638.58
719.55	40354.81
719.75	40356.53
719.94	40324.18
720.13	40740.57
720.32	40561.00
720.51	40308.78
720.71	40354.32
720.90	39999.12
721.09	40333.27
721.28	40084.73
721.47	40550.68
721.67	40487.36
721.86	40472.86
722.05	40483.10
722.24	40181.06
722.43	40671.10
722.63	40399.62
722.82	40432.39
723.01	40607.12
723.20	40291.66
723.39	40365.63
723.58	40623.18
723.78	40137.40
723.97	40692.07
724.16	40255.37
724.35	40545.77
724.54	40287.15
724.73	40521.93
724.93	40316.39
725.12	40650.46
725.31	39915.81
725.50	40375.38
725.69	40511.69
725.88	40238.90
726.08	39914.09
726.27	40484.49
726.46	39735.43
726.65	40556.33
726.84	40040.00
727.03	40237.02
727.23	40615.23
727.42	40208.34
727.61	40277.57
727.80	40133.14
727.99	40368.50
728.18	40327.86
728.37	40157.06
728.56	40006.91
728.76	39920.24
728.95	40219.98
729.14	40144.45
729.33	40030.50
729.52	40159.77
729.71	40150.51
729.90	40112.01
730.09	39842.99
730.29	40093.41
730.48	39572.98
730.67	40129.21
730.86	39661.13
731.05	40022.88
731.24	39801.78
731.43	39958.90
731.62	39714.95
731.81	39685.78
732.01	40149.94
732.20	39647.94
732.39	40078.75
732.58	39982.74
732.77	39395.55
732.96	39980.45
733.15	40003.87
733.34	39722.48
733.53	39811.20
733.72	39924.66
733.92	39713.39
734.11	39580.11
734.30	39646.79
734.49	39869.28
734.68	39598.70
734.87	39495.00
735.06	39474.93
735.25	39505.81
735.44	39111.37
735.63	39267.34
735.82	39299.78
736.01	39116.86
736.20	39077.37
736.40	39483.36
736.59	39217.54
736.78	39436.59
736.97	39094.82
737.16	39183.54
737.35	39273.49
737.54	39324.85
737.73	39081.31
737.92	39255.22
738.11	39342.54
738.30	39050.91
738.49	38859.80
738.68	38808.27
738.87	38960.64
739.06	38792.21
739.25	38964.98
739.44	38831.78
739.63	38679.00
739.82	38390.24
740.01	38670.16
740.20	38399.66
740.39	38438.16
740.59	38349.85
740.78	38401.95
740.97	38067.23
741.16	37996.13
741.35	38107.70
741.54	37937.15
741.73	38042.90
741.92	37776.01
742.11	37878.33
742.30	37940.67
742.49	37545.41
742.68	37845.89
742.87	37671.32
743.06	37240.76
743.25	37656.98
743.44	37399.92
743.63	37566.87
743.82	37241.74
744.01	37262.55
744.20	36991.15
744.39	37284.50
744.58	37076.84
744.77	36984.35
744.96	36583.44
745.15	37007.45
745.34	36696.98
745.53	36843.61
745.72	36530.36
745.91	36579.26
746.10	36308.44
746.29	36526.26
746.48	36543.46
746.67	36351.20
746.86	36368.32
747.04	36260.35
747.23	36019.59
747.42	36239.05
747.61	35857.56
747.80	36327.61
747.99	35611.47
748.18	36017.79
748.37	35792.92
748.56	35425.60
748.75	35526.44
748.94	35484.50
749.13	35424.78
749.32	35163.54
749.51	35205.24
749.70	35169.85
749.89	35022.40
750.08	35098.99
750.27	34704.80
750.46	34865.44
750.65	35154.53
750.84	34623.94
751.02	34792.53
751.21	34602.48
751.40	34670.80
751.59	34702.91
751.78	34570.94
751.97	34652.45
752.16	34347.96
752.35	34632.13
752.54	34203.13
752.73	34443.97
752.92	34077.05
753.11	33981.95
753.30	34066.08
753.49	34095.89
753.67	33860.87
753.86	33585.87
754.05	33668.36
754.24	33419.49
754.43	33395.08
754.62	33479.21
754.81	33141.05
755.00	33243.53
755.19	33190.86
755.38	32741.86
755.56	33038.32
755.75	33179.55
755.94	32749.89
756.13	32708.03
756.32	32794.45
756.51	32507.57
756.70	32600.47
756.89	32530.26
757.08	32354.14
757.26	32331.20
757.45	32271.97
757.64	31996.48
757.83	32242.07
758.02	31946.84
758.21	31956.42
758.40	31939.63
758.59	31801.60
758.77	31613.02
758.96	31679.37
759.15	31632.76
759.34	31256.26
759.53	31347.77
759.72	31292.55
759.91	30946.77
760.09	31140.76
760.28	31225.30
760.47	30779.91
760.66	31089.31
760.85	30610.83
761.04	30869.36
761.23	30690.94
761.41	30561.18
761.60	30733.05
761.79	30469.68
761.98	30138.56
762.17	30482.38
762.36	30080.65
762.54	30277.01
762.73	30088.02
762.92	29884.62
763.11	30160.11
763.30	30213.68
763.49	30034.94
763.67	30006.84
763.86	29924.02
764.05	30005.20
764.24	29678.10
764.43	30008.07
764.61	29414.81
764.80	29397.53
764.99	29769.03
765.18	29299.39
765.37	29353.37
765.55	29380.32
765.74	29146.04
765.93	28942.80
766.12	29171.68
766.31	29012.84
766.49	28876.11
766.68	28923.54
766.87	28773.14
767.06	28535.99
767.25	28661.98
767.43	28472.50
767.62	28352.98
767.81	28396.07
768.00	28239.36
768.19	28017.28
768.37	28155.23
768.56	28125.33
768.75	28113.78
768.94	28101.00
769.12	27774.39
769.31	27766.11
769.50	27689.60
769.69	27828.21
769.88	27366.76
770.06	27764.56
770.25	27387.81
770.44	27373.81
770.63	27501.93
770.81	27293.77
771.00	27156.07
771.19	27242.57
771.38	27085.04
771.56	27250.93
771.75	26743.69
771.94	27040.72
772.13	27027.94
772.31	26786.12
772.50	26963.72
772.69	26736.81
772.88	26964.05
773.06	26590.66
773.25	26655.87
773.44	26523.65
773.62	26456.15
773.81	26507.19
774.00	26355.47
774.19	26401.84
774.37	26215.31
774.56	26407.98
774.75	25959.89
774.94	26177.14
775.12	25894.03
775.31	26021.98
775.50	25922.04
775.68	25776.88
775.87	25720.36
776.06	25500.41
776.25	25693.00
776.43	25514.91
776.62	25674.97
776.81	25367.29
776.99	25410.70
777.18	25426.43
777.37	25166.42
777.55	25228.19
777.74	25329.11
777.93	25204.19
778.12	25176.99
778.30	25054.11
778.49	25041.01
778.68	25053.62
778.86	24968.10
779.05	25120.55
779.24	25006.85
779.42	24875.94
779.61	24800.41
779.80	24778.13
779.98	24856.44
780.17	24898.30
780.36	24617.73
780.54	24851.53
780.73	24346.83
780.92	24695.88
781.10	24442.10
781.29	24325.94
781.48	24153.42
781.66	24191.26
781.85	24253.36
782.04	24105.33
782.22	24225.42
782.41	24015.55
782.60	24116.88
782.78	24138.83
782.97	24103.28
783.16	23840.08
783.34	23796.99
783.53	23864.82
783.71	23704.34
783.90	23706.47
784.09	23656.82
784.27	23584.16
784.46	23584.57
784.65	23618.49
784.83	23381.25
785.02	23382.07
785.20	23646.50
785.39	23155.07
785.58	23512.81
785.76	23361.75
785.95	23310.47
786.14	23308.10
786.32	23358.23
786.51	23288.44
786.69	23412.13
786.88	23297.61
787.07	23207.50
787.25	23270.74
787.44	23158.68
787.62	23171.62
787.81	23247.31
788.00	23149.50
788.18	23020.56
788.37	22947.00
788.55	23214.46
788.74	22974.11
788.93	23043.99
789.11	23194.80
789.30	23040.47
789.48	22880.48
789.67	23083.39
789.86	22939.87
790.04	22966.49
790.23	22853.77
790.41	22790.21
790.60	22921.44
790.78	22909.89
790.97	22655.61
791.16	22801.76
791.34	22985.75
791.53	22631.37
791.71	22973.46
791.90	22704.11
792.08	22855.66
792.27	22807.16
792.46	22790.94
792.64	22866.39
792.83	22754.00
793.01	22823.38
793.20	22757.36
793.38	22742.45
793.57	22694.77
793.75	22790.45
793.94	22803.72
794.12	22940.85
794.31	22780.54
794.50	22833.13
794.68	22994.76
794.87	22854.27
795.05	23040.39
795.24	22853.94
795.42	22751.13
795.61	23060.13
795.79	22966.58
795.98	22706.89
796.16	22977.88
796.35	22926.27
796.53	22688.87
796.72	22854.10
796.90	22815.60
797.09	22749.98
797.27	22769.07
797.46	22706.32
797.64	22829.28
797.83	22777.34
798.01	22802.25
798.20	22935.94
798.38	22717.63
798.57	22938.64
798.75	22845.34
798.94	22540.93
799.12	23123.86
799.31	22889.00
799.49	22852.14
799.68	22701.41
799.86	22717.13
800.05	22714.59
800.23	22667.57
800.42	22612.03
800.60	22860.08
800.79	22555.75
800.97	22655.20
801.16	22801.59
801.34	22507.67
801.53	22515.70
801.71	22652.99
801.90	22436.32
802.08	22700.42
802.27	22531.10
802.45	22435.33
802.64	22541.83
802.82	22665.61
803.00	22396.50
803.19	22536.09
803.37	22708.45
803.56	22473.84
803.74	22472.52
803.93	22557.97
804.11	22461.88
804.30	22299.35
804.48	22472.36
804.67	22486.86
804.85	22445.98
805.03	22574.76
805.22	22386.43
805.40	22296.89
805.59	22459.91
805.77	22449.67
805.96	22291.32
806.14	22339.49
806.32	22392.16
806.51	22638.25
806.69	22374.80
806.88	22334.16
807.06	22363.82
807.25	22408.38
807.43	22361.93
807.61	22334.16
807.80	22245.53
807.98	22387.17
808.17	22274.53
808.35	22168.52
808.53	22425.67
808.72	22190.89
808.90	22195.72
809.09	22216.69
809.27	22277.64
809.45	22035.00
809.64	22205.72
809.82	22046.14
810.01	22094.47
810.19	22139.69
810.37	22036.64
810.56	21984.29
810.74	22185.15
810.93	21921.79
811.11	22055.48
811.29	21857.56
811.48	21990.68
811.66	22028.12
811.84	21944.56
812.03	21899.67
812.21	21906.71
812.40	21984.04
812.58	22086.11
812.76	21869.93
812.95	22094.31
813.13	21847.98
813.31	21837.98
813.50	21912.12
813.68	21778.76
813.86	21966.19
814.05	22026.31
814.23	21736.98
814.42	21900.49
814.60	21776.38
814.78	21901.39
814.97	21863.30
815.15	21837.33
815.33	21908.10
815.52	21773.92
815.70	21857.72
815.88	21842.16
816.07	21667.43
816.25	21749.59
816.43	21816.44
816.62	21544.30
816.80	21691.68
816.98	21616.23
817.17	21565.68
817.35	21594.93
817.53	21608.20
817.72	21741.15
817.90	21448.21
818.08	21514.32
818.26	21582.81
818.45	21426.34
818.63	21523.58
818.81	21556.51
819.00	21346.88
819.18	21594.27
819.36	21592.80
819.55	21568.80
819.73	21466.07
819.91	21626.96
820.09	21566.09
820.28	21646.54
820.46	21426.01
820.64	21773.92
820.83	21476.88
821.01	21565.27
821.19	21533.41
821.38	21574.04
821.56	21465.99
821.74	21540.37
821.92	21366.62
822.11	21616.06
822.29	21306.98
822.47	21412.99
822.65	21495.56
822.84	21486.22
823.02	21276.59
823.20	21540.29
823.39	21366.29
823.57	21378.58
823.75	21420.20
823.93	21262.42
824.12	21391.53
824.30	21286.18
824.48	21297.97
824.66	21436.25
824.85	21042.55
825.03	21348.19
825.21	21392.59
825.39	21263.65
825.58	21374.90
825.76	21242.27
825.94	21369.98
826.12	21243.99
826.31	21212.78
826.49	21346.88
826.67	21256.52
826.85	21242.35
827.03	21316.16
827.22	21376.21
827.40	21170.10
827.58	21175.10
827.76	21267.75
827.95	21145.85
828.13	21166.33
828.31	21239.73
828.49	21239.07
828.67	21177.31
828.86	21082.28
829.04	21177.23
829.22	21069.58
829.40	21109.72
829.58	21008.72
829.77	21109.89
829.95	21135.20
830.13	21167.31
830.31	21096.37
830.49	21135.20
830.68	21191.64
830.86	21081.05
831.04	21091.21
831.22	21089.24
831.40	21082.28
831.59	21139.62
831.77	20961.04
831.95	21149.62
832.13	20870.69
832.31	21080.48
832.50	21037.72
832.68	20905.01
832.86	20954.16
833.04	21100.39
833.22	20854.14
833.40	21221.30
833.59	20971.45
833.77	21157.16
833.95	20682.27
834.13	21264.96
834.31	20991.76
834.49	21001.84
834.67	21073.84
834.86	21117.59
835.04	21038.29
835.22	21094.90
835.40	21009.46
835.58	21061.56
835.76	21058.61
835.95	21056.56
836.13	20981.44
836.31	20969.89
836.49	21147.98
836.67	21117.59
836.85	21038.70
837.03	20949.82
837.21	20993.40
837.40	20895.43
837.58	20742.81
837.76	20866.92
837.94	20859.95
838.12	21027.97
838.30	20862.00
838.48	20905.58
838.66	20885.43
838.85	20848.98
839.03	20928.68
839.21	20809.08
839.39	20921.39
839.57	21007.41
839.75	20863.80
839.93	20894.93
840.11	20896.00
840.29	20884.78
840.47	20867.82
840.66	20783.77
840.84	20800.97
841.02	20739.94
841.20	20800.32
841.38	20782.38
841.56	20736.67
841.74	21040.83
841.92	20801.38
842.10	20832.35
842.28	20919.92
842.46	20812.03
842.65	20793.11
842.83	20931.63
843.01	21034.28
843.19	20856.35
843.37	20992.50
843.55	20869.70
843.73	20980.87
843.91	20962.27
844.09	20840.46
844.27	20887.15
844.45	20679.00
844.63	20707.75
844.81	20753.21
844.99	20783.85
845.17	20619.60
845.35	20797.78
845.54	20746.58
845.72	20771.81
845.90	20763.45
846.08	20811.95
846.26	20623.70
846.44	20789.34
846.62	20624.93
846.80	20580.69
846.98	20601.34
847.16	20628.12
847.34	20711.27
847.52	20666.71
847.70	20628.62
847.88	20764.36
848.06	20620.67
848.24	20707.26
848.42	20742.81
848.60	20585.04
848.78	20727.66
848.96	20664.17
849.14	20600.27
849.32	20704.14
849.50	20499.59
849.68	20659.91
849.86	20603.30
850.04	20466.09
850.22	20461.34
850.40	20379.91
850.58	20504.35
850.76	20869.21
850.94	20281.85
851.12	20584.63
851.30	20492.79
851.48	20659.91
851.66	20441.35
851.84	20434.47
852.02	20399.24
852.20	20566.69
852.38	20342.97
852.56	20437.99
852.74	20442.91
852.92	20346.82
853.10	20312.57
853.28	20431.27
853.46	20043.31
853.64	20338.79
853.82	20126.21
854.00	20238.93
854.18	20123.18
854.36	20097.21
854.54	20199.77
854.72	20095.73
854.90	20067.23
855.07	20203.29
855.25	20150.13
855.43	20221.07
855.61	20212.55
855.79	20180.85
855.97	20269.48
856.15	20280.62
856.33	20146.52
856.51	20290.21
856.69	20100.49
856.87	20254.66
857.05	20199.77
857.23	20269.16
857.41	20070.01
857.59	20162.66
857.77	20170.20
857.94	20156.60
858.12	20323.39
858.30	20115.48
858.48	20057.31
858.66	20052.15
858.84	20194.94
859.02	20029.71
859.20	19968.02
859.38	20232.29
859.56	20091.15
859.74	20012.34
859.92	20051.17
860.09	19925.34
860.27	20102.94
860.45	19792.96
860.63	19825.73
860.81	19913.30
860.99	19828.60
861.17	19610.28
861.35	19350.36
861.53	19209.70
861.70	19168.00
861.88	19549.17
862.06	19565.47
862.24	19291.87
862.42	19312.51
862.60	19604.71
862.78	19602.50
862.96	19694.99
863.14	19548.03
863.31	19621.67
863.49	19612.33
863.67	19599.96
863.85	19617.98
864.03	19678.03
864.21	19631.99
864.39	19663.45
864.56	19435.88
864.74	19535.57
864.92	19383.04
865.10	19357.56
865.28	19430.14
865.46	19573.91
865.64	19183.00
865.81	19498.87
865.99	19171.36
866.17	19424.74
866.35	19293.26
866.53	19322.59
866.71	19344.79
866.88	19293.75
867.06	19168.82
867.24	19219.29
867.42	19038.33
867.60	19153.59
867.78	19027.68
867.95	19127.54
868.13	18918.73
868.31	19062.08
868.49	19063.48
868.67	18898.25
868.84	18843.52
869.02	19004.66
869.20	18652.65
869.38	18951.74
869.56	18815.34
869.73	18686.40
869.91	18794.78
870.09	18740.47
870.27	18615.87
870.45	18685.67
870.62	18548.21
870.80	18715.16
870.98	18708.36
871.16	18692.88
871.34	18650.11
871.51	18731.05
871.69	18523.06
871.87	18572.05
872.05	18561.56
872.23	18548.70
872.40	18421.07
872.58	18480.21
872.76	18303.60
872.94	18271.49
873.11	18392.23
873.29	18238.64
873.47	18296.31
873.65	18278.37
873.83	18232.16
874.00	18215.78
874.18	18318.59
874.36	18254.94
874.54	18260.92
874.71	18120.92
874.89	17958.80
875.07	18090.45
875.25	17967.40
875.42	17997.63
875.60	18006.31
875.78	18159.83
875.96	17914.24
876.13	18046.13
876.31	17874.59
876.49	17859.19
876.66	17752.78
876.84	18058.99
877.02	17832.73
877.20	17833.63
877.37	17865.74
877.55	17841.25
877.73	17758.59
877.91	17682.24
878.08	17832.32
878.26	17770.31
878.44	17721.24
878.61	17678.97
878.79	17612.94
878.97	17623.92
879.15	17755.23
879.32	17728.20
879.50	17657.50
879.68	17786.94
879.85	17575.34
880.03	17687.08
880.21	17565.51
880.38	17685.11
880.56	17528.07
880.74	17851.32
880.92	17513.49
881.09	17742.21
881.27	17591.64
881.45	17701.00
881.62	17611.22
881.80	17537.82
881.98	17441.57
882.15	17565.43
882.33	17382.18
882.51	17418.55
882.68	17283.30
882.86	17449.68
883.04	17262.16
883.21	17329.01
883.39	17492.27
883.57	17328.68
883.74	17266.67
883.92	17356.21
884.10	17337.53
884.27	17319.92
884.45	17229.07
884.63	17368.66
884.80	17265.77
884.98	17305.17
885.16	17280.76
885.33	17283.96
885.51	17323.44
885.69	17201.38
885.86	17206.30
886.04	17263.80
886.21	17028.94
886.39	17251.68
886.57	16998.30
886.74	17267.49
886.92	17209.41
887.10	17203.10
887.27	17176.56
887.45	17138.39
887.62	17105.37
887.80	17143.38
887.98	17307.47
888.15	17213.10
888.33	17138.06
888.51	17340.23
888.68	17156.65
888.86	17246.11
889.03	17115.20
889.21	17182.95
889.39	17272.32
889.56	17251.35
889.74	17168.86
889.91	17188.52
890.09	17158.13
890.27	17145.59
890.44	17171.23
890.62	17163.94
890.79	17166.07
890.97	17180.66
891.14	17091.53
891.32	17124.21
891.50	16996.58
891.67	17109.96
891.85	17012.56
892.02	16979.71
892.20	17120.45
892.38	17053.85
892.55	16994.13
892.73	17072.11
892.90	16876.98
893.08	16908.60
893.25	16906.06
893.43	17093.17
893.60	16873.30
893.78	16970.37
893.96	16896.40
894.13	16935.23
894.31	17106.03
894.48	16951.04
894.66	17004.20
894.83	16987.57
895.01	16983.40
895.18	17005.43
895.36	16940.72
895.53	17007.07
895.71	16845.03
895.89	16891.32
896.06	16745.83
896.24	16791.38
896.41	16728.46
896.59	16780.40
896.76	16562.41
896.94	16675.71
897.11	16716.26
897.29	16754.43
897.46	16590.59
897.64	16627.95
897.81	16604.77
897.99	16433.39
898.16	16635.73
898.34	16583.39
898.51	16582.98
898.69	16456.00
898.86	16472.47
899.04	16454.61
899.21	16417.17
899.39	16429.71
899.56	16313.14
899.74	16513.26
899.91	16342.22
900.09	16282.58
900.26	16349.18
900.44	16172.40
900.61	16156.10
900.79	16374.58
900.96	16186.90
901.14	16168.63
901.31	16109.40
901.49	16098.84
901.66	16116.12
901.84	16092.86
902.01	15992.10
902.19	16007.33
902.36	15906.16
902.54	15882.41
902.71	15877.98
902.88	15943.93
903.06	15720.86
903.23	15996.44
903.41	15712.59
903.58	15696.37
903.76	15608.63
903.93	15746.01
904.11	15735.69
904.28	15633.29
904.45	15614.04
904.63	15576.19
904.80	15410.31
904.98	15522.05
905.15	15348.22
905.33	15462.08
905.50	15303.98
905.68	15315.69
905.85	15291.69
906.02	15270.15
906.20	15322.00
906.37	15097.54
906.55	15030.04
906.72	15155.87
906.90	14960.82
907.07	14911.83
907.24	14986.38
907.42	14868.66
907.59	14832.54
907.77	14751.27
907.94	14713.10
908.11	14762.99
908.29	14702.04
908.46	14701.55
908.64	14563.52
908.81	14620.45
908.98	14439.08
909.16	14484.71
909.33	14353.48
909.51	14301.29
909.68	14295.15
909.85	14274.59
910.03	14252.47
910.20	14102.31
910.37	14135.98
910.55	14059.39
910.72	14047.67
910.90	13939.05
911.07	13877.28
911.24	13819.78
911.42	13921.27
911.59	13717.62
911.76	13811.91
911.94	13683.30
912.11	13682.97
912.29	13648.24
912.46	13525.36
912.63	13560.17
912.81	13429.92
912.98	13533.63
913.15	13367.42
913.33	13405.84
913.50	13346.37
913.67	13285.99
913.85	13279.03
914.02	13266.09
914.19	13209.07
914.37	13182.61
914.54	13197.03
914.71	13115.03
914.89	13140.34
915.06	13096.35
915.23	13003.54
915.41	12945.05
915.58	12888.28
915.75	12864.27
915.93	12838.88
916.10	12718.87
916.27	12674.31
916.45	12639.00
916.62	12596.73
916.79	12677.50
916.97	12526.28
917.14	12522.10
917.31	12484.09
917.49	12475.73
917.66	12467.71
917.83	12379.07
918.00	12368.34
918.18	12339.50
918.35	12268.40
918.52	12298.30
918.70	12180.34
918.87	12138.97
919.04	12152.24
919.21	12087.60
919.39	11979.14
919.56	12034.68
919.73	11920.98
919.91	11932.29
920.08	11891.41
920.25	11781.55
920.42	11895.18
920.60	11760.17
920.77	11708.65
920.94	11749.52
921.11	11546.04
921.29	11627.96
921.46	11471.90
921.63	11543.66
921.81	11389.90
921.98	11421.03
922.15	11410.05
922.32	11416.61
922.50	11333.87
922.67	11338.05
922.84	11303.56
923.01	11236.63
923.19	11181.50
923.36	11206.57
923.53	11006.28
923.70	11063.62
923.87	10990.14
924.05	11021.51
924.22	10905.27
924.39	10928.13
924.56	10811.31
924.74	10868.32
924.91	10858.82
925.08	10785.50
925.25	10742.25
925.43	10780.43
925.60	10679.09
925.77	10739.96
925.94	10656.40
926.11	10621.91
926.29	10573.25
926.46	10624.45
926.63	10528.85
926.80	10523.69
926.97	10419.66
927.15	10457.26
927.32	10332.25
927.49	10317.75
927.66	10334.87
927.83	10334.21
928.01	10206.50
928.18	10191.76
928.35	10100.25
928.52	10174.55
928.69	10016.21
928.87	10021.04
929.04	9974.02
929.21	10012.52
929.38	9928.14
929.55	9949.20
929.72	9844.67
929.90	9869.73
930.07	9824.43
930.24	9781.10
930.41	9710.48
930.58	9732.19
930.75	9747.18
930.93	9687.38
931.10	9659.45
931.27	9537.64
931.44	9567.95
931.61	9514.54
931.78	9526.50
931.95	9505.77
932.13	9396.08
932.30	9502.90
932.47	9391.25
932.64	9412.87
932.81	9374.95
932.98	9331.94
933.15	9361.18
933.33	9253.30
933.50	9296.88
933.67	9227.25
933.84	9233.31
934.01	9199.64
934.18	9202.92
934.35	9170.48
934.52	9130.99
934.70	9181.29
934.87	9098.22
935.04	9069.22
935.21	9009.42
935.38	9011.64
935.55	8912.10
935.72	9008.20
935.89	8922.26
936.06	8943.73
936.24	8806.43
936.41	8942.99
936.58	8869.02
936.75	8832.32
936.92	8819.78
937.09	8815.36
937.26	8733.69
937.43	8721.32
937.60	8747.61
937.77	8736.39
937.94	8662.50
938.12	8691.50
938.29	8586.72
938.46	8630.14
938.63	8495.96
938.80	8608.51
938.97	8493.17
939.14	8477.85
939.31	8455.49
939.48	8465.24
939.65	8357.60
939.82	8336.54
939.99	8352.19
940.16	8335.48
940.33	8289.85
940.50	8283.13
940.67	8250.69
940.85	8274.20
941.02	8216.61
941.19	8220.22
941.36	8209.49
941.53	8186.39
941.70	8149.77
941.87	8073.34
942.04	8076.94
942.21	8050.40
942.38	8081.37
942.55	7979.21
942.72	8032.46
942.89	7964.71
943.06	7945.95
943.23	7943.91
943.40	7896.97
943.57	7892.71
943.74	7882.71
943.91	7834.71
944.08	7844.54
944.25	7890.33
944.42	7785.31
944.59	7780.89
944.76	7765.24
944.93	7756.56
945.10	7746.73
945.27	7712.24
945.44	7647.77
945.61	7691.19
945.78	7616.64
945.95	7640.97
946.12	7570.93
946.29	7602.47
946.46	7553.15
946.63	7499.33
946.80	7494.75
946.97	7473.53
947.14	7451.08
947.31	7517.52
947.48	7450.10
947.65	7399.56
947.82	7412.50
947.99	7442.07
948.16	7358.84
948.33	7449.94
948.50	7325.91
948.67	7369.98
948.84	7326.57
949.01	7303.96
949.18	7299.62
949.35	7321.73
949.52	7214.01
949.68	7253.66
949.85	7199.35
950.02	7165.02
950.19	7181.49
950.36	7149.70
950.53	7157.98
950.70	7094.16
950.87	7086.55
951.04	7136.11
951.21	7074.18
951.38	7050.50
951.55	7039.28
951.72	7054.02
951.89	7023.30
952.06	7012.00
952.23	6998.65
952.39	6956.21
952.56	6915.74
952.73	6972.10
952.90	6864.38
953.07	6938.44
953.24	6849.06
953.41	6854.72
953.58	6823.18
953.75	6844.80
953.92	6767.39
954.09	6764.69
954.25	6732.25
954.42	6758.46
954.59	6702.02
954.76	6703.17
954.93	6669.01
955.10	6717.34
955.27	6642.14
955.44	6634.27
955.61	6632.96
955.77	6671.71
955.94	6602.00
956.11	6617.15
956.28	6617.31
956.45	6631.49
956.62	6576.68
956.79	6589.30
956.96	6575.78
957.12	6597.90
957.29	6556.04
957.46	6544.33
957.63	6494.52
957.80	6476.82
957.97	6459.95
958.14	6487.88
958.30	6434.64
958.47	6415.96
958.64	6387.20
958.81	6431.85
958.98	6371.56
959.15	6361.97
959.32	6385.40
959.48	6361.40
959.65	6310.20
959.82	6310.94
959.99	6281.37
960.16	6293.82
960.33	6267.77
960.49	6263.84
960.66	6214.19
960.83	6246.22
961.00	6246.30
961.17	6207.64
961.33	6190.60
961.50	6199.37
961.67	6146.53
961.84	6180.36
962.01	6162.17
962.18	6157.42
962.34	6123.51
962.51	6129.65
962.68	6095.57
962.85	6156.69
963.02	6075.18
963.18	6100.65
963.35	6048.23
963.52	6043.88
963.69	6031.10
963.86	6061.33
964.02	5995.55
964.19	6032.33
964.36	6006.94
964.53	5995.06
964.69	5921.74
964.86	5972.37
965.03	5896.10
965.20	5913.14
965.37	5870.63
965.53	5884.80
965.70	5885.86
965.87	5883.49
966.04	5858.17
966.20	5845.15
966.37	5822.38
966.54	5784.86
966.71	5823.03
966.87	5772.81
967.04	5790.67
967.21	5785.76
967.38	5749.80
967.54	5771.67
967.71	5720.39
967.88	5756.18
968.05	5722.52
968.21	5709.74
968.38	5705.48
968.55	5689.75
968.72	5663.86
968.88	5629.05
969.05	5660.91
969.22	5640.93
969.39	5609.39
969.55	5639.86
969.72	5585.14
969.89	5576.46
970.05	5594.07
970.22	5587.10
970.39	5535.09
970.56	5598.08
970.72	5542.54
970.89	5578.26
971.06	5522.55
971.22	5546.23
971.39	5535.91
971.56	5562.77
971.73	5487.57
971.89	5528.04
972.06	5479.14
972.23	5493.80
972.39	5442.19
972.56	5477.66
972.73	5439.24
972.89	5449.07
973.06	5452.68
973.23	5429.00
973.39	5405.08
973.56	5419.25
973.73	5391.81
973.89	5395.82
974.06	5362.81
974.23	5375.10
974.39	5339.79
974.56	5340.04
974.73	5326.85
974.89	5298.59
975.06	5299.41
975.23	5346.59
975.39	5262.95
975.56	5303.09
975.73	5286.14
975.89	5263.28
976.06	5257.71
976.23	5232.81
976.39	5241.65
976.56	5232.15
976.73	5220.11
976.89	5216.18
977.06	5203.23
977.23	5180.21
977.39	5165.30
977.56	5173.74
977.72	5145.56
977.89	5185.62
978.06	5144.33
978.22	5133.85
978.39	5121.31
978.56	5114.60
978.72	5117.14
978.89	5104.77
979.05	5098.54
979.22	5100.02
979.39	5070.61
979.55	5077.65
979.72	5059.30
979.88	5096.90
980.05	5020.80
980.22	5063.73
980.38	5025.47
980.55	5045.79
980.71	5012.20
980.88	5032.35
981.05	5027.44
981.21	5001.80
981.38	4995.49
981.54	5016.70
981.71	4980.91
981.88	4974.84
982.04	4980.91
982.21	4950.92
982.37	4929.22
982.54	4968.37
982.70	4937.08
982.87	4938.47
983.04	4891.12
983.20	4930.94
983.37	4893.42
983.53	4919.96
983.70	4886.78
983.86	4894.15
984.03	4872.69
984.20	4874.08
984.36	4866.38
984.53	4873.67
984.69	4818.62
984.86	4828.70
985.02	4841.73
985.19	4832.80
985.35	4794.29
985.52	4780.94
985.68	4776.76
985.85	4809.29
986.02	4785.45
986.18	4794.62
986.35	4782.50
986.51	4792.98
986.68	4770.70
986.84	4760.87
987.01	4750.47
987.17	4768.65
987.34	4739.90
987.50	4735.80
987.67	4712.54
987.83	4752.84
988.00	4725.65
988.16	4708.69
988.33	4687.80
988.49	4693.78
988.66	4678.38
988.82	4670.11
988.99	4670.52
989.15	4647.25
989.32	4643.15
989.48	4642.91
989.65	4613.09
989.81	4620.05
989.98	4587.04
990.14	4587.61
990.31	4589.42
990.47	4593.84
990.64	4587.04
990.80	4596.54
990.97	4564.51
991.13	4570.33
991.30	4573.11
991.46	4522.24
991.63	4536.17
991.79	4567.05
991.95	4522.08
992.12	4538.38
992.28	4518.97
992.45	4528.14
992.61	4508.64
992.78	4500.78
992.94	4469.24
993.11	4524.13
993.27	4475.79
993.44	4476.86
993.60	4473.26
993.76	4477.92
993.93	4456.87
994.09	4482.68
994.26	4470.72
994.42	4458.76
994.59	4412.64
994.75	4450.48
994.91	4431.80
995.08	4440.49
995.24	4402.40
995.41	4402.31
995.57	4407.06
995.74	4384.05
995.90	4377.16
996.06	4396.58
996.23	4374.87
996.39	4370.86
996.56	4358.65
996.72	4381.75
996.88	4355.05
997.05	4360.94
997.21	4332.60
997.38	4369.38
997.54	4330.55
997.70	4346.36
997.87	4336.61
998.03	4335.71
998.20	4280.50
998.36	4323.26
998.52	4286.89
998.69	4320.39
998.85	4297.05
999.02	4287.30
999.18	4276.49
999.34	4292.38
999.51	4271.00
999.67	4282.88
999.83	4262.56
1000.00	4232.66
1000.16	4234.13
1000.33	4245.36
1000.49	4224.47
1000.65	4243.39
1000.82	4252.07
1000.98	4241.67
1001.14	4214.80
1001.31	4231.10
1001.47	4207.35
1001.63	4215.13
1001.80	4189.49
1001.96	4197.27
1002.12	4184.57
1002.29	4189.57
1002.45	4169.17
1002.61	4161.72
1002.78	4166.88
1002.94	4139.93
1003.10	4173.19
1003.27	4149.68
1003.43	4131.49
1003.59	4147.71
1003.76	4129.61
1003.92	4139.85
1004.08	4116.25
1004.25	4152.71
1004.41	4108.55
1004.57	4142.14
1004.74	4105.19
1004.90	4136.90
1005.06	4109.45
1005.23	4111.50
1005.39	4084.47
1005.55	4114.37
1005.71	4098.15
1005.88	4083.24
1006.04	4102.25
1006.20	4094.54
1006.37	4049.98
1006.53	4068.17
1006.69	4059.07
1006.85	4070.54
1007.02	4032.94
1007.18	4052.60
1007.34	4046.54
1007.51	4043.67
1007.67	4021.56
1007.83	4032.20
1007.99	4000.26
1008.16	4022.54
1008.32	3994.52
1008.48	4017.46
1008.64	4008.37
1008.81	4013.45
1008.97	3988.95
1009.13	4011.73
1009.29	4000.67
1009.46	4005.09
1009.62	3994.03
1009.78	3975.52
1009.95	3985.84
1010.11	3973.06
1010.27	3958.56
1010.43	3965.60
1010.59	3967.16
1010.76	3947.75
1010.92	3940.21
1011.08	3947.58
1011.24	3942.34
1011.41	3971.18
1011.57	3909.00
1011.73	3938.98
1011.89	3920.80
1012.06	3938.98
1012.22	3882.05
1012.38	3922.84
1012.54	3914.41
1012.70	3886.64
1012.87	3878.36
1013.03	3889.26
1013.19	3896.06
1013.35	3898.76
1013.51	3836.99
1013.68	3893.76
1013.84	3857.64
1014.00	3861.73
1014.16	3831.50
1014.32	3835.11
1014.49	3833.96
1014.65	3873.69
1014.81	3825.61
1014.97	3844.94
1015.13	3822.90
1015.30	3854.52
1015.46	3834.37
1015.62	3819.87
1015.78	3811.27
1015.94	3817.99
1016.10	3806.27
1016.27	3820.36
1016.43	3796.36
1016.59	3809.63
1016.75	3798.65
1016.91	3797.51
1017.07	3783.83
1017.24	3800.37
1017.40	3783.66
1017.56	3776.13
1017.72	3778.91
1017.88	3756.88
1018.04	3757.20
1018.21	3785.71
1018.37	3740.25
1018.53	3754.99
1018.69	3747.29
1018.85	3746.72
1019.01	3740.98
1019.17	3754.09
1019.34	3739.43
1019.50	3739.43
1019.66	3715.02
1019.82	3729.51
1019.98	3731.24
1020.14	3744.26
1020.30	3717.23
1020.46	3741.39
1020.63	3722.80
1020.79	3705.76
1020.95	3718.87
1021.11	3712.07
1021.27	3702.73
1021.43	3706.41
1021.59	3736.07
1021.75	3682.17
1021.91	3670.86
1022.07	3705.76
1022.24	3682.33
1022.40	3684.13
1022.56	3672.99
1022.72	3697.40
1022.88	3663.98
1023.04	3670.53
1023.20	3622.69
1023.36	3653.33
1023.52	3649.48
1023.68	3634.82
1023.84	3638.99
1024.01	3657.84
1024.17	3642.44
1024.33	3637.68
1024.49	3645.47
1024.65	3613.03
1024.81	3618.92
1024.97	3616.22
1025.13	3607.62
1025.29	3640.06
1025.45	3610.65
1025.61	3622.77
1025.77	3595.09
1025.93	3643.91
1026.09	3588.86
1026.25	3627.03
1026.41	3591.81
1026.57	3602.30
1026.73	3607.70
1026.90	3587.55
1027.06	3578.29
1027.22	3616.55
1027.38	3609.59
1027.54	3593.45
1027.70	3594.35
1027.86	3592.46
1028.02	3605.16
1028.18	3605.49
1028.34	3576.16
1028.50	3587.63
1028.66	3566.74
1028.82	3589.84
1028.98	3567.40
1029.14	3550.77
1029.30	3573.21
1029.46	3579.85
1029.62	3572.97
1029.78	3550.52
1029.94	3559.53
1030.10	3542.00
1030.26	3527.59
1030.42	3523.98
1030.58	3558.30
1030.74	3554.45
1030.90	3518.33
1031.06	3527.83
1031.22	3530.12
1031.38	3529.96
1031.54	3536.19
1031.70	3539.55
1031.86	3513.90
1032.02	3521.03
1032.18	3497.68
1032.34	3531.44
1032.50	3510.96
1032.66	3546.02
1032.82	3512.43
1032.98	3533.81
1033.14	3513.41
1033.30	3536.51
1033.45	3483.51
1033.61	3517.26
1033.77	3488.10
1033.93	3525.46
1034.09	3473.76
1034.25	3501.04
1034.41	3492.61
1034.57	3500.06
1034.73	3475.89
1034.89	3486.13
1035.05	3466.15
1035.21	3495.39
1035.37	3457.79
1035.53	3479.83
1035.69	3466.06
1035.85	3495.80
1036.01	3460.17
1036.16	3467.78
1036.32	3490.56
1036.48	3453.61
1036.64	3443.37
1036.80	3475.81
1036.96	3455.33
1037.12	3441.65
1037.28	3469.34
1037.44	3450.58
1037.60	3457.38
1037.76	3431.74
1037.91	3452.14
1038.07	3441.65
1038.23	3436.41
1038.39	3468.85
1038.55	3432.72
1038.71	3443.54
1038.87	3429.28
1039.03	3456.07
1039.19	3421.75
1039.35	3435.18
1039.50	3443.05
1039.66	3432.48
1039.82	3403.56
1039.98	3439.93
1040.14	3406.67
1040.30	3407.16
1040.46	3411.67
1040.62	3404.79
1040.77	3409.05
1040.93	3436.33
1041.09	3415.68
1041.25	3395.61
1041.41	3409.05
1041.57	3396.68
1041.73	3396.68
1041.88	3396.68

