SpectraSuite Data File
++++++++++++++++++++++++++++++++++++
Date: Tue Sep 20 11:56:23 EDT 2022
User: Laboratoire
Dark Spectrum Present: No
Reference Spectrum Present: No
Number of Sampled Component Spectra: 1
Spectrometers: FLMT00174
Integration Time (usec): 15000 (FLMT00174)
Spectra Averaged: 25 (FLMT00174)
Boxcar Smoothing: 0 (FLMT00174)
Correct for Electrical Dark: No (FLMT00174)
Strobe/Lamp Enabled: No (FLMT00174)
Correct for Detector Non-linearity: No (FLMT00174)
Correct for Stray Light: No (FLMT00174)
Number of Pixels in Processed Spectrum: 3648
>>>>>Begin Processed Spectral Data<<<<<
345.74	3146.09
345.96	3146.09
346.18	3146.09
346.39	3170.01
346.61	3191.88
346.83	3214.98
347.05	3216.21
347.27	3212.77
347.49	3198.68
347.71	3221.95
347.93	3215.23
348.15	3220.47
348.36	3211.13
348.58	3210.31
348.80	3202.45
349.02	3223.01
349.24	3204.50
349.46	3295.84
349.68	3307.55
349.90	3314.43
350.11	3309.35
350.33	3321.64
350.55	3297.89
350.77	3337.21
350.99	3310.25
351.21	3316.73
351.43	3296.90
351.65	3307.96
351.86	3287.40
352.08	3316.81
352.30	3290.59
352.52	3319.84
352.74	3292.31
352.96	3302.47
353.18	3313.12
353.39	3302.96
353.61	3310.99
353.83	3323.69
354.05	3340.24
354.27	3330.32
354.49	3313.61
354.70	3316.56
354.92	3321.23
355.14	3306.40
355.36	3312.63
355.58	3301.33
355.80	3302.39
356.02	3332.95
356.23	3315.09
356.45	3316.73
356.67	3309.19
356.89	3327.13
357.11	3290.84
357.33	3313.12
357.54	3288.46
357.76	3320.90
357.98	3300.67
358.20	3335.40
358.42	3298.38
358.63	3318.28
358.85	3312.38
359.07	3337.37
359.29	3294.03
359.51	3305.34
359.73	3287.65
359.94	3309.52
360.16	3307.22
360.38	3291.41
360.60	3301.74
360.82	3326.23
361.03	3319.18
361.25	3314.35
361.47	3325.25
361.69	3340.73
361.91	3307.39
362.12	3310.34
362.34	3307.55
362.56	3330.57
362.78	3310.17
363.00	3338.43
363.21	3301.90
363.43	3352.36
363.65	3307.63
363.87	3325.08
364.09	3321.64
364.30	3323.12
364.52	3296.49
364.74	3327.79
364.96	3307.80
365.17	3328.03
365.39	3312.06
365.61	3320.17
365.83	3311.40
366.05	3330.82
366.26	3291.82
366.48	3315.33
366.70	3330.41
366.92	3339.34
367.13	3318.77
367.35	3330.08
367.57	3333.11
367.79	3360.88
368.01	3323.12
368.22	3336.14
368.44	3308.70
368.66	3324.02
368.88	3327.79
369.09	3327.13
369.31	3339.25
369.53	3329.42
369.75	3315.50
369.96	3328.44
370.18	3333.11
370.40	3339.25
370.62	3333.19
370.83	3325.82
371.05	3340.16
371.27	3352.93
371.49	3321.89
371.70	3337.37
371.92	3332.95
372.14	3339.83
372.36	3302.47
372.57	3353.75
372.79	3335.32
373.01	3333.85
373.22	3320.25
373.44	3347.28
373.66	3323.77
373.88	3337.45
374.09	3313.61
374.31	3325.74
374.53	3328.52
374.75	3351.95
374.96	3335.81
375.18	3344.25
375.40	3328.36
375.61	3339.09
375.83	3328.11
376.05	3333.85
376.27	3346.87
376.48	3310.66
376.70	3324.10
376.92	3326.80
377.13	3343.27
377.35	3342.12
377.57	3323.36
377.79	3331.55
378.00	3334.18
378.22	3344.09
378.44	3316.15
378.65	3347.69
378.87	3344.33
379.09	3348.18
379.30	3341.22
379.52	3346.71
379.74	3352.69
379.96	3351.79
380.17	3337.53
380.39	3347.04
380.61	3338.60
380.82	3354.82
381.04	3357.93
381.26	3364.32
381.47	3358.59
381.69	3378.08
381.91	3348.67
382.12	3348.67
382.34	3369.32
382.56	3362.52
382.77	3320.74
382.99	3364.65
383.21	3371.61
383.42	3382.83
383.64	3350.89
383.86	3372.84
384.07	3370.87
384.29	3353.18
384.51	3387.09
384.72	3371.04
384.94	3361.78
385.16	3377.92
385.37	3381.36
385.59	3381.20
385.81	3395.78
386.02	3397.83
386.24	3417.49
386.46	3386.52
386.67	3409.05
386.89	3404.13
387.11	3407.90
387.32	3419.04
387.54	3410.36
387.76	3426.42
387.97	3420.19
388.19	3423.06
388.40	3417.98
388.62	3410.20
388.84	3421.09
389.05	3448.29
389.27	3425.02
389.49	3442.06
389.70	3431.00
389.92	3408.80
390.14	3433.54
390.35	3438.54
390.57	3420.93
390.78	3447.55
391.00	3411.01
391.22	3428.05
391.43	3439.85
391.65	3436.41
391.86	3449.03
392.08	3452.55
392.30	3441.24
392.51	3433.21
392.73	3466.80
392.95	3427.56
393.16	3428.22
393.38	3443.21
393.59	3416.18
393.81	3465.33
394.03	3441.32
394.24	3455.17
394.46	3439.85
394.67	3461.07
394.89	3451.89
395.11	3474.01
395.32	3477.61
395.54	3461.80
395.75	3471.55
395.97	3461.97
396.19	3458.94
396.40	3484.50
396.62	3476.30
396.83	3478.35
397.05	3468.03
397.26	3483.10
397.48	3476.96
397.70	3473.93
397.91	3491.79
398.13	3477.78
398.34	3481.79
398.56	3516.20
398.78	3507.35
398.99	3528.90
399.21	3487.36
399.42	3529.47
399.64	3492.36
399.85	3507.52
400.07	3517.10
400.29	3539.46
400.50	3526.93
400.72	3562.07
400.93	3533.57
401.15	3541.35
401.36	3547.98
401.58	3565.19
401.79	3566.01
402.01	3578.46
402.23	3572.23
402.44	3612.29
402.66	3595.58
402.87	3597.54
403.09	3600.98
403.30	3606.88
403.52	3610.57
403.73	3612.04
403.95	3628.51
404.16	3642.44
404.38	3659.47
404.60	3649.64
404.81	3666.93
405.03	3675.78
405.24	3701.99
405.46	3696.75
405.67	3719.93
405.89	3718.78
406.10	3718.46
406.32	3723.53
406.53	3734.27
406.75	3789.23
406.96	3771.05
407.18	3763.43
407.39	3763.43
407.61	3780.30
407.82	3796.44
408.04	3801.85
408.25	3788.33
408.47	3815.69
408.68	3819.22
408.90	3827.16
409.12	3841.74
409.33	3853.79
409.55	3826.67
409.76	3838.30
409.98	3864.68
410.19	3867.88
410.41	3858.78
410.62	3883.03
410.84	3872.38
411.05	3875.90
411.27	3896.63
411.48	3883.44
411.70	3881.97
411.91	3896.22
412.12	3897.78
412.34	3886.64
412.55	3898.43
412.77	3900.56
412.98	3903.92
413.20	3895.48
413.41	3905.72
413.63	3904.08
413.84	3885.73
414.06	3924.56
414.27	3907.03
414.49	3914.41
414.70	3908.92
414.92	3924.81
415.13	3909.98
415.35	3909.65
415.56	3913.83
415.78	3928.41
415.99	3923.58
416.21	3912.69
416.42	3930.13
416.63	3936.44
416.85	3933.49
417.06	3926.61
417.28	3926.78
417.49	3957.99
417.71	3931.20
417.92	3925.05
418.14	3929.89
418.35	3948.65
418.57	3963.15
418.78	3950.78
418.99	3950.12
419.21	3984.53
419.42	3959.22
419.64	3961.51
419.85	3967.49
420.07	4010.50
420.28	3981.58
420.50	3979.53
420.71	3998.78
420.92	3973.55
421.14	4027.37
421.35	4002.63
421.57	4001.40
421.78	4038.02
422.00	4035.97
422.21	4073.25
422.42	4044.98
422.64	4051.95
422.85	4072.43
423.07	4091.76
423.28	4097.00
423.50	4101.59
423.71	4133.46
423.92	4145.50
424.14	4131.41
424.35	4168.93
424.57	4177.69
424.78	4196.53
424.99	4204.48
425.21	4218.24
425.42	4225.78
425.64	4229.63
425.85	4250.44
426.06	4263.95
426.28	4285.83
426.49	4314.66
426.71	4314.91
426.92	4304.09
427.13	4359.80
427.35	4410.26
427.56	4436.23
427.78	4421.89
427.99	4454.41
428.20	4505.86
428.42	4522.16
428.63	4535.68
428.84	4502.91
429.06	4554.93
429.27	4588.51
429.49	4591.63
429.70	4665.44
429.91	4650.94
430.13	4697.63
430.34	4689.11
430.56	4736.30
430.77	4785.69
430.98	4788.64
431.20	4808.30
431.41	4861.39
431.62	4896.20
431.84	4877.52
432.05	4916.93
432.26	4928.48
432.48	4919.22
432.69	5014.98
432.91	4991.64
433.12	5042.43
433.33	5038.49
433.55	5138.44
433.76	5107.47
433.97	5092.64
434.19	5139.66
434.40	5182.75
434.61	5207.90
434.83	5227.89
435.04	5199.30
435.25	5276.39
435.47	5259.10
435.68	5251.89
435.89	5343.15
436.11	5303.58
436.32	5349.21
436.53	5350.36
436.75	5343.72
436.96	5364.04
437.17	5333.48
437.39	5361.34
437.60	5427.20
437.81	5426.13
438.03	5397.38
438.24	5424.17
438.45	5466.77
438.67	5412.78
438.88	5453.58
439.09	5510.26
439.31	5487.82
439.52	5481.76
439.73	5476.92
439.94	5459.39
440.16	5461.11
440.37	5444.81
440.58	5480.61
440.80	5487.49
441.01	5468.40
441.22	5552.78
441.44	5539.35
441.65	5479.30
441.86	5485.44
442.08	5507.15
442.29	5506.66
442.50	5531.07
442.71	5506.41
442.93	5524.52
443.14	5487.57
443.35	5540.33
443.57	5479.95
443.78	5489.46
443.99	5504.28
444.20	5510.02
444.42	5527.96
444.63	5491.91
444.84	5531.65
445.06	5551.80
445.27	5495.19
445.48	5482.00
445.69	5512.15
445.91	5522.72
446.12	5495.19
446.33	5538.28
446.54	5571.95
446.76	5522.39
446.97	5552.45
447.18	5518.62
447.39	5569.90
447.61	5557.37
447.82	5559.25
448.03	5555.57
448.25	5581.62
448.46	5623.80
448.67	5627.82
448.88	5593.00
449.10	5647.97
449.31	5675.74
449.52	5618.81
449.73	5656.57
449.95	5731.53
450.16	5670.91
450.37	5759.05
450.58	5802.80
450.79	5697.69
451.01	5738.33
451.22	5745.86
451.43	5799.52
451.64	5831.39
451.86	5842.53
452.07	5872.43
452.28	5886.52
452.49	5989.57
452.71	5888.73
452.92	5954.84
453.13	5990.72
453.34	6016.28
453.55	6061.41
453.77	6095.82
453.98	6103.68
454.19	6094.02
454.40	6150.87
454.62	6211.33
454.83	6160.62
455.04	6249.99
455.25	6219.11
455.46	6410.39
455.68	6334.86
455.89	6352.55
456.10	6390.07
456.31	6464.04
456.52	6486.00
456.74	6522.21
456.95	6636.48
457.16	6635.99
457.37	6687.60
457.58	6696.37
457.80	6733.89
458.01	6732.66
458.22	7004.63
458.43	6896.33
458.64	6973.83
458.86	6931.15
459.07	7017.16
459.28	7058.61
459.49	7157.98
459.70	7327.47
459.91	7295.27
460.13	7308.05
460.34	7367.77
460.55	7402.42
460.76	7552.09
460.97	7546.11
461.19	7594.93
461.40	7793.50
461.61	7753.20
461.82	7832.01
462.03	7887.38
462.24	7920.15
462.46	7968.65
462.67	8024.92
462.88	8166.56
463.09	8170.99
463.30	8330.32
463.51	8275.02
463.72	8473.76
463.94	8500.46
464.15	8561.74
464.36	8518.89
464.57	8797.99
464.78	8798.07
464.99	8847.72
465.20	8854.27
465.42	9043.91
465.63	9045.39
465.84	9055.79
466.05	9211.35
466.26	9263.37
466.47	9404.11
466.68	9376.09
466.90	9544.52
467.11	9502.57
467.32	9672.06
467.53	9759.64
467.74	9637.09
467.95	9749.48
468.16	9920.36
468.37	10008.67
468.59	10015.47
468.80	10170.54
469.01	10055.28
469.22	10227.56
469.43	10467.17
469.64	10346.99
469.85	10432.93
470.06	10519.76
470.28	10621.99
470.49	10485.11
470.70	10634.04
470.91	10859.40
471.12	10757.08
471.33	10888.89
471.54	10847.19
471.75	10843.91
471.96	11083.69
472.17	11097.53
472.39	11297.74
472.60	11079.92
472.81	11296.60
473.02	11234.99
473.23	11415.13
473.44	11446.83
473.65	11373.68
473.86	11438.89
474.07	11491.97
474.28	11505.73
474.49	11776.89
474.71	11699.47
474.92	11757.06
475.13	11682.84
475.34	11685.46
475.55	11698.82
475.76	11833.98
475.97	11990.20
476.18	11897.80
476.39	12062.54
476.60	12072.37
476.81	12095.14
477.02	12178.37
477.23	12175.58
477.44	12125.61
477.65	12213.43
477.87	12353.68
478.08	12364.82
478.29	12307.23
478.50	12576.00
478.71	12407.82
478.92	12463.45
479.13	12474.59
479.34	12547.09
479.55	12569.61
479.76	12562.90
479.97	12555.60
480.18	12860.51
480.39	12651.61
480.60	12870.91
480.81	12860.01
481.02	12876.97
481.23	12873.29
481.44	13026.47
481.65	13071.94
481.86	13222.51
482.07	12965.77
482.28	13403.71
482.49	13222.83
482.71	13235.45
482.92	13331.21
483.13	13454.34
483.34	13338.09
483.55	13429.19
483.76	13443.19
483.97	13611.13
484.18	13564.60
484.39	13660.77
484.60	13635.05
484.81	13895.63
485.02	13778.98
485.23	13975.09
485.44	13995.16
485.65	14128.61
485.86	14057.99
486.07	14261.89
486.28	14232.24
486.49	14333.24
486.70	14419.09
486.91	14530.91
487.12	14482.25
487.33	14458.66
487.54	14773.96
487.75	14769.79
487.96	14832.95
488.17	14747.83
488.38	14932.31
488.59	15000.55
488.80	15159.80
489.01	15164.31
489.22	15387.78
489.43	15350.34
489.64	15275.47
489.85	15633.62
490.06	15453.73
490.26	15685.97
490.47	15664.01
490.68	15925.66
490.89	16106.78
491.10	15967.28
491.31	16230.97
491.52	16391.61
491.73	16391.86
491.94	16465.26
492.15	16623.36
492.36	16747.31
492.57	16792.44
492.78	16830.94
492.99	16945.22
493.20	17131.50
493.41	17195.16
493.62	17325.65
493.83	17411.58
494.04	17554.21
494.25	17762.03
494.46	17818.56
494.67	17843.05
494.88	18103.14
495.08	18194.56
495.29	18341.36
495.50	18608.91
495.71	18591.79
495.92	18817.64
496.13	18881.04
496.34	18912.01
496.55	19132.62
496.76	19403.19
496.97	19235.10
497.18	19607.91
497.39	19620.69
497.60	19997.51
497.81	19796.08
498.02	20094.67
498.22	20019.63
498.43	20439.96
498.64	20604.61
498.85	20689.15
499.06	20914.02
499.27	21271.02
499.48	20921.56
499.69	21361.95
499.90	21530.79
500.11	21778.26
500.32	22113.56
500.52	22025.00
500.73	22492.10
500.94	22601.14
501.15	22748.75
501.36	22873.52
501.57	22918.90
501.78	23185.14
501.99	23514.20
502.20	23596.29
502.41	23785.68
502.61	23776.43
502.82	24199.95
503.03	24079.53
503.24	24595.70
503.45	24505.09
503.66	24932.38
503.87	24986.78
504.08	25407.51
504.28	25297.00
504.49	25592.32
504.70	25787.86
504.91	26038.28
505.12	26002.08
505.33	26495.47
505.54	26584.93
505.75	26772.44
505.95	27043.51
506.16	27050.14
506.37	26985.92
506.58	27564.76
506.79	27316.54
507.00	27898.99
507.21	27717.78
507.41	27832.96
507.62	28021.70
507.83	28559.09
508.04	28268.28
508.25	28772.40
508.46	28544.92
508.67	29101.47
508.87	28965.90
509.08	29504.84
509.29	29390.07
509.50	29605.35
509.71	29820.72
509.92	29934.42
510.12	29781.15
510.33	30006.67
510.54	30031.25
510.75	30266.60
510.96	30535.05
511.17	30748.12
511.37	30697.58
511.58	30954.97
511.79	30894.02
512.00	30758.85
512.21	31361.12
512.42	31243.98
512.62	31398.64
512.83	31611.95
513.04	31454.75
513.25	31806.67
513.46	31226.61
513.66	31948.15
513.87	31716.89
514.08	32094.29
514.29	31746.63
514.50	31793.57
514.71	32059.89
514.91	31793.98
515.12	31813.47
515.33	32082.50
515.54	31978.29
515.75	32320.31
515.95	32046.70
516.16	32065.46
516.37	32337.67
516.58	32373.14
516.78	32111.82
516.99	32351.03
517.20	32214.55
517.41	32171.62
517.62	32174.82
517.82	32025.40
518.03	32431.63
518.24	32649.13
518.45	32043.67
518.66	32405.09
518.86	32067.26
519.07	32328.91
519.28	31749.41
519.49	32285.33
519.69	32201.36
519.90	32160.65
520.11	32203.41
520.32	32037.19
520.52	32271.32
520.73	31899.65
520.94	32187.52
521.15	32083.40
521.36	31697.80
521.56	32206.77
521.77	31625.72
521.98	31964.20
522.19	31496.53
522.39	31783.08
522.60	31546.58
522.81	31531.35
523.02	31376.77
523.22	31625.06
523.43	31705.75
523.64	31477.94
523.84	31421.25
524.05	31597.04
524.26	31480.64
524.47	31231.36
524.67	31286.57
524.88	31323.93
525.09	31444.59
525.30	31127.00
525.50	31048.60
525.71	31071.45
525.92	31048.84
526.13	31212.60
526.33	30905.08
526.54	30772.45
526.75	30843.72
526.95	31107.58
527.16	30497.53
527.37	30886.24
527.58	30977.90
527.78	30830.94
527.99	30976.02
528.20	31042.05
528.40	30712.65
528.61	30576.26
528.82	30797.11
529.03	30684.31
529.23	30677.43
529.44	30673.25
529.65	30602.31
529.85	30618.12
530.06	30559.22
530.27	30558.23
530.47	30242.44
530.68	30834.22
530.89	30219.25
531.09	30669.40
531.30	30489.26
531.51	30226.05
531.72	30536.20
531.92	30496.79
532.13	30575.11
532.34	30515.23
532.54	30483.28
532.75	30601.32
532.96	30492.45
533.16	30647.28
533.37	30797.85
533.58	30466.89
533.78	30778.43
533.99	30830.29
534.20	30396.03
534.40	30684.96
534.61	30810.30
534.82	30779.00
535.02	30823.73
535.23	30805.30
535.44	30976.76
535.64	30800.63
535.85	30977.33
536.06	30865.92
536.26	30906.14
536.47	30981.18
536.68	31334.66
536.88	30915.48
537.09	31431.98
537.29	31006.90
537.50	31544.29
537.71	31267.40
537.91	31461.63
538.12	31637.19
538.33	31384.30
538.53	31551.66
538.74	31776.20
538.95	31682.49
539.15	31648.00
539.36	31918.41
539.56	32088.72
539.77	31915.30
539.98	31979.28
540.18	32136.89
540.39	32061.03
540.60	32314.90
540.80	32519.12
541.01	32557.71
541.21	32609.23
541.42	32748.66
541.63	32753.49
541.83	32999.90
542.04	32988.68
542.25	33040.70
542.45	33253.69
542.66	33274.25
542.86	33557.93
543.07	32893.08
543.28	33604.96
543.48	33661.07
543.69	33873.24
543.89	33809.01
544.10	34243.43
544.31	34214.92
544.51	34175.44
544.72	34340.50
544.92	34373.35
545.13	34814.90
545.33	34893.78
545.54	34908.61
545.75	35205.65
545.95	35003.55
546.16	35214.74
546.36	35785.14
546.57	35173.62
546.78	34637.05
546.98	35348.76
547.19	34829.07
547.39	35771.95
547.60	36155.00
547.80	36668.39
548.01	36822.72
548.22	36596.63
548.42	36786.35
548.63	37083.55
548.83	37108.78
549.04	37504.78
549.24	37328.16
549.45	37669.85
549.65	38200.84
549.86	37767.33
550.07	38071.74
550.27	38526.55
550.48	38620.92
550.68	38622.97
550.89	38769.69
551.09	39090.32
551.30	39035.43
551.50	39474.11
551.71	39437.82
551.91	39576.75
552.12	39963.41
552.33	40368.33
552.53	40210.88
552.74	40799.06
552.94	40910.39
553.15	40860.74
553.35	41222.01
553.56	41015.74
553.76	41559.51
553.97	41356.44
554.17	41784.87
554.38	42400.41
554.58	42022.03
554.79	42716.86
554.99	42281.05
555.20	42586.69
555.40	43139.56
555.61	43006.85
555.81	42897.65
556.02	43802.04
556.22	43836.53
556.43	43712.99
556.63	43967.68
556.84	44000.61
557.04	44587.97
557.25	44157.07
557.45	44786.86
557.66	44836.51
557.86	44885.66
558.07	45526.67
558.27	45371.19
558.48	45565.75
558.68	45784.47
558.89	46042.02
559.09	46280.08
559.30	46184.89
559.50	46583.83
559.71	46332.34
559.91	47026.44
560.12	46891.93
560.32	47001.54
560.53	47368.29
560.73	47193.23
560.94	47691.70
561.14	47442.92
561.35	48135.54
561.55	47884.38
561.76	48198.86
561.96	47720.95
562.17	48365.81
562.37	48707.09
562.57	48610.50
562.78	48702.25
562.98	49025.42
563.19	49160.02
563.39	49277.32
563.60	49377.84
563.80	49048.85
564.01	49713.38
564.21	49532.01
564.42	49454.60
564.62	49762.28
564.82	50182.20
565.03	49731.48
565.23	49898.19
565.44	50183.84
565.64	49979.04
565.85	50397.32
566.05	50163.60
566.25	50529.29
566.46	50258.71
566.66	50539.69
566.87	50678.71
567.07	50452.69
567.28	50556.40
567.48	50916.27
567.68	50207.67
567.89	51218.55
568.09	50660.68
568.30	50678.13
568.50	51106.57
568.71	50895.46
568.91	51173.41
569.11	50781.84
569.32	50812.81
569.52	51009.33
569.73	50309.01
569.93	50873.84
570.13	50699.84
570.34	50663.55
570.54	51034.97
570.75	50819.20
570.95	50882.36
571.15	50680.10
571.36	51183.00
571.56	50675.76
571.77	50529.29
571.97	50021.55
572.17	50816.08
572.38	50556.24
572.58	50703.77
572.79	50449.74
572.99	50627.34
573.19	50503.07
573.40	50325.96
573.60	50366.92
573.81	50141.73
574.01	50300.16
574.21	50160.65
574.42	49994.60
574.62	49597.05
574.82	50028.76
575.03	49601.23
575.23	49987.56
575.43	49397.09
575.64	49311.97
575.84	49596.48
576.05	49073.75
576.25	49317.14
576.45	48993.15
576.66	49508.50
576.86	48855.77
577.06	49170.26
577.27	48928.27
577.47	48935.31
577.67	48676.94
577.88	48099.00
578.08	48539.56
578.28	48563.65
578.49	48327.07
578.69	48373.51
578.89	47920.18
579.10	47932.54
579.30	48361.72
579.50	47745.36
579.71	47271.79
579.91	47848.99
580.11	47404.99
580.32	47389.18
580.52	47206.58
580.72	47633.54
580.93	46819.27
581.13	46777.00
581.33	47044.30
581.54	46610.79
581.74	46494.38
581.94	46558.44
582.15	46757.91
582.35	46357.41
582.55	46422.45
582.76	45987.79
582.96	46312.11
583.16	45790.53
583.37	45858.69
583.57	45461.96
583.77	45921.69
583.97	44874.11
584.18	45819.94
584.38	45491.04
584.58	45115.36
584.79	45386.51
584.99	45218.17
585.19	45083.16
585.40	44930.39
585.60	45087.42
585.80	44484.58
586.00	44707.90
586.21	44623.27
586.41	44585.18
586.61	44522.35
586.82	44324.11
587.02	44145.20
587.22	44322.71
587.42	43686.53
587.63	44217.45
587.83	43504.75
588.03	43748.71
588.23	43431.60
588.44	43652.95
588.64	43352.55
588.84	43439.79
589.05	43422.43
589.25	43458.63
589.45	43276.61
589.65	43107.69
589.86	43214.60
590.06	43156.76
590.26	42737.42
590.46	43007.18
590.67	42396.72
590.87	42865.79
591.07	42963.52
591.27	42423.59
591.48	42808.20
591.68	42225.76
591.88	42903.39
592.08	42169.31
592.29	42497.56
592.49	42272.61
592.69	42391.72
592.89	42085.68
593.10	41981.72
593.30	41914.71
593.50	42252.71
593.70	41479.97
593.90	42066.59
594.11	41847.37
594.31	41877.44
594.51	41993.44
594.71	41933.72
594.92	42067.08
595.12	41716.63
595.32	41836.48
595.52	41968.20
595.72	41359.14
595.93	41887.60
596.13	41669.61
596.33	41363.15
596.53	41772.58
596.73	41599.65
596.94	41465.63
597.14	41729.98
597.34	41526.91
597.54	41865.48
597.74	41418.20
597.95	41393.79
598.15	41344.64
598.35	41593.92
598.55	41511.84
598.75	41290.65
598.96	41798.63
599.16	41420.41
599.36	41583.35
599.56	41408.70
599.76	41354.47
599.97	41732.28
600.17	41412.88
600.37	41508.89
600.57	40925.38
600.77	41649.54
600.97	41455.64
601.18	41856.88
601.38	41527.15
601.58	41773.16
601.78	41550.83
601.98	41502.09
602.18	41769.72
602.39	42103.04
602.59	41777.42
602.79	41689.35
602.99	41624.96
603.19	41798.47
603.39	41638.07
603.60	41679.44
603.80	41768.49
604.00	41656.18
604.20	41863.51
604.40	41977.46
604.60	41951.49
604.80	41906.77
605.01	42138.51
605.21	42115.33
605.41	42108.04
605.61	41902.18
605.81	42284.17
606.01	42519.11
606.21	42189.14
606.42	42500.43
606.62	42210.60
606.82	42612.90
607.02	42404.18
607.22	42601.93
607.42	42893.15
607.62	42489.21
607.82	42813.20
608.03	42870.13
608.23	42845.47
608.43	42710.72
608.63	43171.75
608.83	43069.68
609.03	43199.77
609.23	43224.92
609.43	43381.38
609.63	43201.33
609.84	43236.80
610.04	43776.64
610.24	43755.02
610.44	43809.98
610.64	43592.33
610.84	43905.50
611.04	44237.76
611.24	44049.43
611.44	43694.56
611.64	44170.84
611.85	44263.08
612.05	44352.12
612.25	44554.05
612.45	44366.46
612.65	44726.90
612.85	44836.84
613.05	44661.94
613.25	45175.65
613.45	45050.89
613.65	45143.05
613.85	44858.30
614.05	45274.12
614.25	45451.88
614.46	45345.39
614.66	45330.15
614.86	45232.34
615.06	45489.48
615.26	45824.94
615.46	45330.40
615.66	46063.08
615.86	46123.29
616.06	45792.99
616.26	46076.68
616.46	46524.69
616.66	46216.76
616.86	46751.69
617.06	46498.31
617.26	47014.32
617.46	46816.48
617.66	46779.54
617.86	46711.14
618.07	47083.37
618.27	47187.17
618.47	47236.89
618.67	47424.24
618.87	47574.31
619.07	47427.68
619.27	47546.13
619.47	47736.10
619.67	48087.29
619.87	47903.87
620.07	48322.23
620.27	48376.63
620.47	48168.31
620.67	48519.82
620.87	48554.39
621.07	48827.92
621.27	48761.81
621.47	48661.87
621.67	49010.02
621.87	48805.47
622.07	49405.12
622.27	49327.62
622.47	49156.98
622.67	49471.55
622.87	49162.06
623.07	49621.22
623.27	50143.45
623.47	49318.28
623.67	50023.03
623.87	50373.07
624.07	50469.16
624.27	50184.82
624.47	50579.18
624.67	50440.00
624.87	50703.12
625.07	50429.84
625.27	51131.55
625.47	50808.14
625.67	50825.51
625.87	51216.91
626.07	51209.29
626.27	51528.94
626.47	51559.74
626.67	51414.09
626.87	51336.43
627.07	51906.10
627.27	51879.23
627.47	52244.58
627.67	52002.02
627.87	52088.94
628.07	52505.41
628.27	52330.60
628.47	52121.38
628.67	52753.14
628.86	52953.75
629.06	52675.56
629.26	52643.36
629.46	53105.88
629.66	53024.86
629.86	52521.88
630.06	53117.10
630.26	53102.36
630.46	53546.27
630.66	53038.21
630.86	53375.55
631.06	53500.32
631.26	53221.96
631.46	53991.17
631.66	53823.57
631.86	53653.18
632.06	54114.13
632.26	53865.84
632.45	53943.01
632.65	54009.61
632.85	54262.82
633.05	54282.64
633.25	54444.27
633.45	54155.75
633.65	54371.77
633.85	54905.96
634.05	54007.72
634.25	54495.38
634.45	54489.32
634.65	54870.00
634.84	54479.49
635.04	54726.89
635.24	54443.77
635.44	54916.12
635.64	54561.90
635.84	54902.52
636.04	54703.21
636.24	54762.68
636.44	54769.32
636.64	54323.76
636.84	55276.64
637.03	54590.82
637.23	55018.93
637.43	55127.39
637.63	54877.86
637.83	55269.68
638.03	55252.07
638.23	54726.15
638.43	55251.00
638.62	55392.23
638.82	54438.78
639.02	55292.53
639.22	54783.82
639.42	55207.34
639.62	54827.15
639.82	54928.32
640.02	55043.50
640.21	55167.04
640.41	54598.27
640.61	55017.70
640.81	54816.75
641.01	54816.59
641.21	54614.74
641.41	55263.62
641.61	54642.10
641.80	54627.03
642.00	54936.35
642.20	54908.75
642.40	54178.44
642.60	54652.26
642.80	54711.40
642.99	54249.30
643.19	54656.52
643.39	54080.71
643.59	54439.68
643.79	54159.43
643.99	54490.96
644.19	54324.58
644.38	53703.64
644.58	54148.54
644.78	53896.72
644.98	53789.74
645.18	53959.23
645.38	54208.83
645.57	53622.46
645.77	53743.53
645.97	53454.93
646.17	53930.88
646.37	53618.03
646.56	53408.32
646.76	53351.55
646.96	53351.72
647.16	52944.50
647.36	53017.90
647.55	52811.71
647.75	52838.49
647.95	52372.13
648.15	52634.93
648.35	52554.97
648.55	52569.47
648.74	52311.51
648.94	52271.37
649.14	52628.95
649.34	52068.13
649.54	51985.72
649.73	51906.51
649.93	51688.77
650.13	51704.90
650.33	51313.17
650.52	51656.90
650.72	51820.49
650.92	51342.99
651.12	51027.19
651.32	51319.89
651.51	51297.36
651.71	51121.81
651.91	50754.24
652.11	50494.55
652.30	50293.77
652.50	50757.68
652.70	50676.00
652.90	50162.54
653.10	50486.36
653.29	50142.63
653.49	50328.42
653.69	49786.69
653.89	49854.03
654.08	49782.43
654.28	50113.55
654.48	49653.58
654.68	49784.73
654.87	49456.40
655.07	48974.55
655.27	49408.47
655.47	48900.50
655.66	48779.26
655.86	48614.60
656.06	49056.47
656.26	48176.33
656.45	48442.33
656.65	48335.50
656.85	48182.64
657.04	47887.16
657.24	47733.56
657.44	47591.52
657.64	48025.60
657.83	47069.94
658.03	47602.74
658.23	47360.75
658.43	47142.03
658.62	47072.15
658.82	46813.70
659.02	46575.07
659.21	46704.34
659.41	46265.50
659.61	46726.54
659.81	46307.19
660.00	46051.61
660.20	46201.77
660.40	45877.61
660.59	45940.20
660.79	45602.28
660.99	45910.79
661.19	45802.82
661.38	45754.82
661.58	45016.32
661.78	45369.88
661.97	44985.52
662.17	45528.07
662.37	44695.77
662.56	44648.01
662.76	44563.96
662.96	44656.94
663.15	44623.76
663.35	44402.34
663.55	44145.52
663.74	43834.23
663.94	44186.73
664.14	43652.21
664.33	43889.36
664.53	43610.10
664.73	43830.95
664.93	43349.93
665.12	43716.60
665.32	43404.90
665.52	43339.69
665.71	43051.74
665.91	43151.77
666.10	42814.26
666.30	43057.40
666.50	42637.32
666.69	42550.97
666.89	42709.32
667.09	42916.82
667.28	42395.41
667.48	42148.34
667.68	42216.75
667.87	42131.06
668.07	41774.96
668.27	42116.72
668.46	41936.34
668.66	41671.99
668.86	41902.83
669.05	41483.66
669.25	41681.82
669.44	41288.03
669.64	41105.93
669.84	41143.12
670.03	41396.17
670.23	40997.39
670.43	40966.58
670.62	40796.27
670.82	40681.34
671.01	40956.59
671.21	40519.88
671.41	40499.48
671.60	40683.55
671.80	40810.77
672.00	40405.11
672.19	40589.51
672.39	40475.89
672.58	40321.15
672.78	40117.50
672.98	40339.00
673.17	40012.80
673.37	39446.01
673.56	39615.74
673.76	39795.56
673.96	39850.28
674.15	39677.18
674.35	39616.73
674.54	39413.65
674.74	39301.42
674.94	39241.46
675.13	39344.43
675.33	38973.34
675.52	39467.31
675.72	39254.81
675.91	39166.42
676.11	39507.37
676.31	38878.80
676.50	39054.44
676.70	38880.60
676.89	39026.67
677.09	39054.27
677.28	38944.58
677.48	38410.23
677.68	38852.67
677.87	38502.55
678.07	38546.54
678.26	38529.26
678.46	38500.17
678.65	38319.87
678.85	38665.49
679.04	38081.00
679.24	38266.79
679.44	37995.15
679.63	38130.47
679.83	38003.34
680.02	38125.81
680.22	37844.58
680.41	38089.19
680.61	37897.91
680.80	37796.08
681.00	37899.96
681.19	37880.79
681.39	37664.11
681.59	37522.80
681.78	37447.27
681.98	37796.08
682.17	37328.24
682.37	37585.31
682.56	37312.35
682.76	37576.05
682.95	37309.49
683.15	37411.88
683.34	37304.57
683.54	37317.10
683.73	37337.17
683.93	36900.14
684.12	37188.49
684.32	37365.19
684.51	36983.20
684.71	37249.27
684.90	37176.20
685.10	37062.66
685.29	36997.13
685.49	37143.35
685.68	37068.32
685.88	37041.53
686.07	36650.12
686.27	37074.54
686.46	36934.13
686.66	36735.40
686.85	36941.34
687.05	36751.13
687.24	36698.54
687.44	36970.51
687.63	36875.89
687.83	36507.34
688.02	36823.95
688.22	36911.36
688.41	36647.01
688.61	36668.80
688.80	36713.85
689.00	36463.51
689.19	36339.89
689.39	36735.48
689.58	36704.84
689.77	36647.58
689.97	36721.64
690.16	36691.74
690.36	36271.57
690.55	36224.64
690.75	36719.51
690.94	36321.54
691.14	36595.56
691.33	36282.96
691.53	36580.16
691.72	36434.84
691.91	36471.46
692.11	36467.93
692.30	36533.39
692.50	36590.24
692.69	36290.09
692.89	36425.83
693.08	36302.70
693.28	36217.10
693.47	36477.52
693.66	36321.95
693.86	36297.87
694.05	36305.73
694.25	36364.63
694.44	36524.46
694.64	36420.26
694.83	36544.36
695.02	36474.41
695.22	36640.29
695.41	36392.57
695.61	36290.58
695.80	36314.01
695.99	36319.50
696.19	36382.66
696.38	36420.91
696.58	36156.23
696.77	36669.78
696.96	36644.14
697.16	36535.35
697.35	36497.92
697.55	36539.78
697.74	36354.80
697.93	36744.90
698.13	36349.48
698.32	36556.65
698.52	36397.24
698.71	36117.32
698.90	36742.85
699.10	36347.51
699.29	36516.84
699.49	36786.11
699.68	36494.23
699.87	36464.49
700.07	36740.64
700.26	36538.71
700.45	36623.58
700.65	36446.39
700.84	36886.95
701.04	36565.17
701.23	36844.51
701.42	36647.01
701.62	36591.14
701.81	36708.61
702.00	36707.14
702.20	36499.31
702.39	36737.04
702.58	36972.39
702.78	36734.50
702.97	36845.91
703.17	36962.80
703.36	36856.97
703.55	36827.31
703.75	36811.17
703.94	36954.78
704.13	36799.46
704.33	36737.20
704.52	37073.56
704.71	36953.22
704.91	37029.24
705.10	36818.96
705.29	36962.15
705.49	37026.29
705.68	37168.09
705.87	37152.86
706.07	36893.01
706.26	37199.80
706.45	36839.76
706.65	36792.41
706.84	37308.42
707.03	37485.12
707.23	36955.76
707.42	36927.25
707.61	37341.43
707.80	37143.03
708.00	37077.33
708.19	37062.50
708.38	37311.04
708.58	36865.49
708.77	37478.81
708.96	37072.74
709.16	37100.10
709.35	37701.30
709.54	37408.12
709.74	37277.95
709.93	36998.11
710.12	37681.81
710.31	37768.89
710.51	37530.34
710.70	37494.21
710.89	37670.50
711.09	37220.11
711.28	37344.30
711.47	37755.53
711.66	37655.35
711.86	37580.72
712.05	37796.33
712.24	37992.44
712.43	37559.34
712.63	37361.26
712.82	37874.64
713.01	37738.33
713.21	37465.79
713.40	37633.80
713.59	38022.92
713.78	37458.17
713.98	37922.07
714.17	37685.41
714.36	37792.48
714.55	37455.46
714.75	37699.58
714.94	37809.11
715.13	38115.24
715.32	37608.49
715.52	37891.35
715.71	37644.12
715.90	37751.85
716.09	37746.36
716.29	38056.17
716.48	38068.22
716.67	37633.23
716.86	37942.23
717.06	37997.03
717.25	38093.61
717.44	38173.15
717.63	38151.53
717.82	37786.33
718.02	38026.44
718.21	38329.54
718.40	38399.74
718.59	38220.42
718.79	38134.16
718.98	38155.87
719.17	38400.64
719.36	38426.28
719.55	38252.62
719.75	38203.96
719.94	38169.63
720.13	38573.74
720.32	38430.38
720.51	38190.19
720.71	38201.01
720.90	37817.55
721.09	38128.84
721.28	37980.73
721.47	38451.51
721.67	38338.55
721.86	38300.46
722.05	38358.37
722.24	37921.58
722.43	38432.59
722.63	38168.57
722.82	38328.64
723.01	38395.73
723.20	38180.94
723.39	38274.57
723.58	38606.50
723.78	38101.64
723.97	38641.48
724.16	38282.84
724.35	38380.41
724.54	38142.19
724.73	38397.53
724.93	38143.01
725.12	38421.12
725.31	37720.55
725.50	38136.54
725.69	38347.23
725.88	38065.84
726.08	37643.71
726.27	38258.92
726.46	37592.51
726.65	38483.71
726.84	37891.93
727.03	38065.60
727.23	38478.22
727.42	38032.66
727.61	38134.82
727.80	37928.63
727.99	38185.28
728.18	38250.73
728.37	38080.18
728.56	37851.79
728.76	37844.25
728.95	38147.60
729.14	38067.81
729.33	37994.82
729.52	38091.73
729.71	38039.71
729.90	37975.89
730.09	37653.38
730.29	37863.99
730.48	37310.88
730.67	37768.80
730.86	37406.07
731.05	37834.01
731.24	37542.63
731.43	37632.08
731.62	37469.31
731.81	37482.01
732.01	37923.06
732.20	37498.39
732.39	37945.34
732.58	37857.60
732.77	37278.36
732.96	37728.83
733.15	37834.75
733.34	37536.40
733.53	37624.63
733.72	37724.57
733.92	37532.96
734.11	37332.59
734.30	37381.90
734.49	37561.63
734.68	37210.45
734.87	37211.02
735.06	37159.82
735.25	37265.33
735.44	36990.66
735.63	37061.93
735.82	37188.33
736.01	36865.24
736.20	36879.17
736.40	37224.13
736.59	36948.14
736.78	37285.07
736.97	36834.77
737.16	36900.22
737.35	37022.77
737.54	37049.72
737.73	36791.84
737.92	36974.77
738.11	37120.01
738.30	36808.96
738.49	36681.33
738.68	36642.75
738.87	36804.37
739.06	36591.14
739.25	36695.59
739.44	36619.81
739.63	36445.65
739.82	36123.79
740.01	36450.89
740.20	36118.55
740.39	36126.09
740.59	36101.02
740.78	36033.60
740.97	35760.40
741.16	35739.59
741.35	35795.46
741.54	35570.10
741.73	35603.04
741.92	35427.32
742.11	35503.42
742.30	35567.97
742.49	35173.70
742.68	35535.70
742.87	35287.65
743.06	34980.62
743.25	35201.55
743.44	35040.66
743.63	35352.45
743.82	34974.06
744.01	34971.61
744.20	34767.63
744.39	35045.91
744.58	34952.60
744.77	34759.52
744.96	34436.92
745.15	34723.23
745.34	34516.47
745.53	34568.98
745.72	34312.90
745.91	34281.60
746.10	34073.12
746.29	34375.40
746.48	34322.81
746.67	34175.19
746.86	34127.02
747.04	34103.10
747.23	33845.80
747.42	34088.44
747.61	33772.23
747.80	34226.23
747.99	33431.62
748.18	33921.65
748.37	33691.95
748.56	33244.02
748.75	33325.20
748.94	33299.07
749.13	33222.15
749.32	33038.00
749.51	33055.94
749.70	32960.66
749.89	32811.98
750.08	32839.67
750.27	32451.70
750.46	32685.34
750.65	32880.96
750.84	32384.28
751.02	32552.71
751.21	32401.32
751.40	32448.75
751.59	32491.35
751.78	32372.41
751.97	32435.40
752.16	32178.83
752.35	32449.49
752.54	31997.79
752.73	32242.73
752.92	31842.23
753.11	31836.08
753.30	31827.65
753.49	31922.10
753.67	31781.85
753.86	31438.78
754.05	31600.40
754.24	31382.42
754.43	31312.05
754.62	31280.18
754.81	31009.36
755.00	31122.49
755.19	31009.77
755.38	30566.10
755.56	30842.98
755.75	31082.19
755.94	30615.25
756.13	30592.31
756.32	30665.71
756.51	30400.62
756.70	30535.38
756.89	30390.22
757.08	30219.58
757.26	30277.17
757.45	30071.47
757.64	29800.81
757.83	30074.67
758.02	29782.79
758.21	29804.74
758.40	29759.44
758.59	29801.47
758.77	29483.62
758.96	29469.61
759.15	29571.36
759.34	29159.72
759.53	29317.66
759.72	29175.36
759.91	28936.00
760.09	29092.30
760.28	29148.00
760.47	28762.00
760.66	29071.33
760.85	28656.08
761.04	28925.59
761.23	28737.43
761.41	28655.01
761.60	28776.99
761.79	28525.09
761.98	28303.75
762.17	28479.54
762.36	28107.14
762.54	28311.61
762.73	28053.08
762.92	27994.75
763.11	28192.67
763.30	28248.78
763.49	28106.00
763.67	27982.22
763.86	27982.30
764.05	28022.36
764.24	27884.73
764.43	28015.88
764.61	27548.62
764.80	27524.54
764.99	27767.75
765.18	27312.45
765.37	27513.89
765.55	27476.78
765.74	27286.64
765.93	27085.78
766.12	27211.77
766.31	27115.35
766.49	27075.13
766.68	27061.04
766.87	26903.59
767.06	26750.24
767.25	26802.18
767.43	26776.04
767.62	26613.27
767.81	26675.28
768.00	26516.36
768.19	26309.93
768.37	26381.77
768.56	26328.69
768.75	26250.78
768.94	26326.15
769.12	25987.33
769.31	25891.16
769.50	25979.55
769.69	26035.09
769.88	25678.33
770.06	26055.57
770.25	25665.88
770.44	25646.71
770.63	25833.90
770.81	25691.69
771.00	25560.70
771.19	25589.62
771.38	25565.86
771.56	25692.59
771.75	25171.99
771.94	25416.68
772.13	25355.00
772.31	25105.89
772.50	25388.01
772.69	25114.73
772.88	25384.82
773.06	24963.51
773.25	25074.59
773.44	25072.54
773.62	24904.04
773.81	24935.17
774.00	24800.41
774.19	24765.68
774.37	24622.56
774.56	24801.72
774.75	24412.44
774.94	24675.16
775.12	24386.39
775.31	24508.94
775.50	24407.20
775.68	24286.12
775.87	24265.48
776.06	24086.32
776.25	24223.13
776.43	23965.58
776.62	24172.91
776.81	23836.14
776.99	23980.32
777.18	23881.61
777.37	23644.04
777.55	23786.26
777.74	23825.41
777.93	23738.74
778.12	23731.70
778.30	23546.81
778.49	23581.95
778.68	23576.87
778.86	23562.29
779.05	23603.58
779.24	23538.70
779.42	23366.01
779.61	23265.33
779.80	23261.98
779.98	23397.96
780.17	23401.98
780.36	23102.48
780.54	23278.28
780.73	22852.96
780.92	23280.82
781.10	23070.61
781.29	23026.87
781.48	22852.46
781.66	22856.40
781.85	22916.11
782.04	22804.71
782.22	22787.34
782.41	22619.32
782.60	22713.94
782.78	22688.05
782.97	22707.63
783.16	22422.64
783.34	22446.72
783.53	22499.31
783.71	22417.48
783.90	22402.65
784.09	22377.58
784.27	22352.51
784.46	22299.02
784.65	22340.31
784.83	22186.71
785.02	22197.44
785.20	22377.34
785.39	21938.09
785.58	22349.48
785.76	22140.26
785.95	22066.95
786.14	22119.95
786.32	22185.32
786.51	21992.81
786.69	22134.94
786.88	21968.81
787.07	21950.46
787.25	22055.64
787.44	21912.77
787.62	21874.68
787.81	22006.57
788.00	21959.14
788.18	21796.61
788.37	21772.45
788.55	22068.67
788.74	21745.41
788.93	21917.53
789.11	21997.31
789.30	21818.57
789.48	21642.20
789.67	21794.81
789.86	21717.81
790.04	21743.12
790.23	21691.10
790.41	21582.97
790.60	21695.61
790.78	21682.83
790.97	21431.67
791.16	21609.59
791.34	21876.07
791.53	21543.98
791.71	21842.08
791.90	21637.94
792.08	21691.10
792.27	21795.55
792.46	21701.75
792.64	21710.52
792.83	21632.86
793.01	21714.78
793.20	21653.01
793.38	21664.97
793.57	21634.17
793.75	21629.66
793.94	21697.16
794.12	21832.00
794.31	21667.18
794.50	21757.29
794.68	21880.01
794.87	21766.06
795.05	21951.52
795.24	21700.60
795.42	21620.24
795.61	21922.85
795.79	21891.15
795.98	21659.40
796.16	21840.19
796.35	21842.49
796.53	21650.06
796.72	21788.18
796.90	21745.00
797.09	21755.74
797.27	21701.42
797.46	21662.43
797.64	21789.90
797.83	21739.02
798.01	21784.41
798.20	21879.43
798.38	21854.28
798.57	21972.90
798.75	21932.43
798.94	21630.40
799.12	22198.10
799.31	21837.57
799.49	21898.03
799.68	21790.06
799.86	21796.12
800.05	21813.98
800.23	21820.94
800.42	21706.99
800.60	21909.99
800.79	21654.81
800.97	21712.40
801.16	21877.55
801.34	21555.53
801.53	21579.36
801.71	21614.84
801.90	21505.39
802.08	21653.17
802.27	21579.28
802.45	21457.39
802.64	21584.85
802.82	21721.00
803.00	21437.56
803.19	21578.14
803.37	21771.38
803.56	21594.85
803.74	21546.19
803.93	21597.39
804.11	21518.25
804.30	21394.97
804.48	21542.67
804.67	21596.90
804.85	21501.71
805.03	21665.22
805.22	21496.95
805.40	21371.13
805.59	21535.29
805.77	21546.52
805.96	21411.27
806.14	21409.38
806.32	21506.62
806.51	21711.42
806.69	21489.75
806.88	21459.11
807.06	21526.28
807.25	21515.47
807.43	21529.64
807.61	21562.65
807.80	21424.37
807.98	21586.74
808.17	21479.18
808.35	21419.95
808.53	21681.76
808.72	21473.53
808.90	21463.78
809.09	21472.71
809.27	21507.44
809.45	21303.30
809.64	21440.10
809.82	21285.69
810.01	21288.39
810.19	21347.78
810.37	21259.80
810.56	21242.02
810.74	21364.66
810.93	21103.58
811.11	21244.97
811.29	21157.81
811.48	21165.59
811.66	21214.83
811.84	21161.58
812.03	21179.68
812.21	21228.34
812.40	21241.70
812.58	21275.12
812.76	21175.26
812.95	21359.41
813.13	21145.52
813.31	21251.69
813.50	21197.87
813.68	21175.34
813.86	21285.03
814.05	21288.23
814.23	21018.79
814.42	21138.48
814.60	21063.11
814.78	21230.39
814.97	21084.82
815.15	21118.82
815.33	21179.52
815.52	21092.69
815.70	21101.61
815.88	21142.90
816.07	20971.20
816.25	21093.18
816.43	21105.38
816.62	20935.40
816.80	21056.72
816.98	20973.08
817.17	20915.99
817.35	20960.63
817.53	20905.17
817.72	21077.86
817.90	20772.87
818.08	20848.57
818.26	20959.32
818.45	20815.64
818.63	21024.77
818.81	21047.47
819.00	20748.63
819.18	21043.45
819.36	20973.41
819.55	21016.09
819.73	20829.81
819.91	21015.03
820.09	20974.07
820.28	21019.45
820.46	20860.61
820.64	21152.98
820.83	20863.64
821.01	20937.70
821.19	20873.96
821.38	20925.41
821.56	20829.07
821.74	20961.37
821.92	20775.09
822.11	21015.52
822.29	20753.05
822.47	20827.84
822.65	20917.87
822.84	20890.59
823.02	20714.79
823.20	21024.77
823.39	20757.06
823.57	20831.36
823.75	20882.24
823.93	20739.21
824.12	20862.66
824.30	20758.46
824.48	20718.48
824.66	20876.83
824.85	20469.53
825.03	20802.69
825.21	20847.18
825.39	20686.45
825.58	20851.60
825.76	20704.55
825.94	20837.10
826.12	20801.96
826.31	20721.27
826.49	20828.99
826.67	20834.40
826.85	20678.67
827.03	20687.27
827.22	20840.38
827.40	20634.02
827.58	20616.41
827.76	20746.74
827.95	20604.04
828.13	20613.38
828.31	20655.24
828.49	20736.67
828.67	20628.37
828.86	20542.19
829.04	20684.98
829.22	20577.99
829.40	20552.76
829.58	20495.99
829.77	20647.21
829.95	20661.47
830.13	20631.40
830.31	20563.08
830.49	20604.12
830.68	20669.08
830.86	20622.23
831.04	20535.06
831.22	20601.66
831.40	20563.65
831.59	20717.50
831.77	20547.60
831.95	20729.05
832.13	20528.27
832.31	20685.22
832.50	20582.33
832.68	20510.41
832.86	20570.45
833.04	20659.34
833.22	20368.20
833.40	20735.68
833.59	20486.16
833.77	20691.61
833.95	20277.76
834.13	20887.89
834.31	20571.19
834.49	20624.19
834.67	20649.10
834.86	20675.96
835.04	20652.45
835.22	20729.95
835.40	20642.30
835.58	20546.29
835.76	20569.80
835.95	20665.56
836.13	20506.07
836.31	20478.05
836.49	20635.91
836.67	20670.72
836.85	20615.92
837.03	20567.67
837.21	20585.20
837.40	20470.27
837.58	20349.11
837.76	20477.23
837.94	20465.27
838.12	20599.62
838.30	20494.27
838.48	20512.86
838.66	20481.57
838.85	20485.67
839.03	20496.48
839.21	20504.51
839.39	20435.86
839.57	20484.11
839.75	20383.11
839.93	20467.40
840.11	20436.52
840.29	20382.37
840.47	20485.75
840.66	20421.85
840.84	20505.33
841.02	20340.18
841.20	20457.90
841.38	20405.96
841.56	20424.64
841.74	20636.64
841.92	20436.19
842.10	20421.03
842.28	20527.20
842.46	20418.00
842.65	20397.03
842.83	20536.78
843.01	20697.92
843.19	20474.28
843.37	20582.58
843.55	20440.12
843.73	20516.55
843.91	20520.56
844.09	20425.21
844.27	20608.38
844.45	20339.93
844.63	20377.37
844.81	20355.74
844.99	20458.14
845.17	20382.70
845.35	20514.50
845.54	20365.74
845.72	20344.52
845.90	20411.45
846.08	20438.89
846.26	20263.26
846.44	20484.77
846.62	20268.58
846.80	20226.97
846.98	20288.24
847.16	20322.32
847.34	20401.13
847.52	20403.91
847.70	20284.56
847.88	20408.17
848.06	20256.21
848.24	20302.01
848.42	20329.69
848.60	20130.06
848.78	20303.56
848.96	20221.23
849.14	20179.78
849.32	20381.55
849.50	20196.08
849.68	20337.48
849.86	20241.14
850.04	20162.42
850.22	20145.62
850.40	20053.14
850.58	20226.15
850.76	20537.44
850.94	19927.15
851.12	20327.65
851.30	20132.19
851.48	20294.22
851.66	20081.81
851.84	20032.90
852.02	20055.76
852.20	20167.50
852.38	20036.18
852.56	20088.44
852.74	20050.52
852.92	19985.55
853.10	19940.09
853.28	20129.24
853.46	19775.76
853.64	20026.59
853.82	19853.01
854.00	19916.00
854.18	19729.15
854.36	19739.88
854.54	19899.05
854.72	19726.12
854.90	19718.33
855.07	19839.66
855.25	19782.80
855.43	19824.91
855.61	19829.66
855.79	19806.15
855.97	19920.92
856.15	19882.83
856.33	19833.84
856.51	19987.11
856.69	19721.45
856.87	19954.26
857.05	19805.09
857.23	19908.47
857.41	19719.73
857.59	19764.05
857.77	19735.87
857.94	19780.92
858.12	19916.17
858.30	19754.46
858.48	19789.52
858.66	19714.16
858.84	19919.45
859.02	19722.51
859.20	19562.53
859.38	19849.98
859.56	19677.54
859.74	19641.25
859.92	19644.28
860.09	19509.69
860.27	19663.94
860.45	19463.24
860.63	19444.07
860.81	19558.76
860.99	19362.48
861.17	19217.89
861.35	18919.87
861.53	18811.08
861.70	18821.57
861.88	19263.93
862.06	19260.49
862.24	19001.46
862.42	18985.41
862.60	19257.62
862.78	19322.34
862.96	19408.52
863.14	19269.01
863.31	19290.23
863.49	19317.34
863.67	19267.54
863.85	19220.68
864.03	19305.55
864.21	19261.15
864.39	19253.20
864.56	19062.25
864.74	19170.46
864.92	19073.47
865.10	18995.73
865.28	19060.45
865.46	19282.61
865.64	18938.47
865.81	19122.95
865.99	18897.84
866.17	19064.95
866.35	18959.77
866.53	18946.09
866.71	18906.44
866.88	18944.45
867.06	18734.90
867.24	18828.04
867.42	18707.38
867.60	18763.98
867.78	18622.02
867.95	18785.44
868.13	18564.43
868.31	18648.56
868.49	18613.91
868.67	18503.40
868.84	18503.48
869.02	18585.73
869.20	18282.38
869.38	18528.30
869.56	18348.08
869.73	18316.95
869.91	18433.11
870.09	18407.63
870.27	18289.02
870.45	18340.38
870.62	18225.20
870.80	18392.48
870.98	18331.12
871.16	18383.14
871.34	18337.18
871.51	18368.40
871.69	18224.55
871.87	18272.71
872.05	18187.93
872.23	18202.84
872.40	18061.28
872.58	18112.81
872.76	17991.24
872.94	17934.80
873.11	18021.31
873.29	17943.40
873.47	17989.93
873.65	17922.68
873.83	17878.28
874.00	17879.83
874.18	17969.62
874.36	17823.88
874.54	17823.80
874.71	17619.00
874.89	17558.87
875.07	17627.93
875.25	17574.93
875.42	17610.97
875.60	17609.91
875.78	17710.42
875.96	17475.97
876.13	17660.95
876.31	17503.01
876.49	17482.85
876.66	17373.57
876.84	17609.58
877.02	17420.27
877.20	17453.12
877.37	17461.23
877.55	17383.65
877.73	17332.29
877.91	17260.12
878.08	17445.01
878.26	17354.98
878.44	17292.88
878.61	17282.73
878.79	17151.74
878.97	17217.44
879.15	17309.27
879.32	17256.18
879.50	17257.50
879.68	17398.40
879.85	17219.32
880.03	17346.70
880.21	17195.07
880.38	17277.81
880.56	17155.92
880.74	17402.08
880.92	17074.49
881.09	17253.97
881.27	17208.59
881.45	17222.52
881.62	17142.89
881.80	17100.46
881.98	16989.05
882.15	17184.67
882.33	17003.06
882.51	17061.79
882.68	16938.91
882.86	17052.13
883.04	16841.02
883.21	16873.71
883.39	16998.39
883.57	16819.07
883.74	16910.98
883.92	16911.88
884.10	16858.88
884.27	16866.74
884.45	16731.17
884.63	16970.86
884.80	16872.80
884.98	16861.25
885.16	16885.09
885.33	16875.34
885.51	16893.94
885.69	16868.55
885.86	16813.00
886.04	16920.65
886.21	16764.43
886.39	16899.35
886.57	16620.99
886.74	16824.06
886.92	16759.18
887.10	16816.12
887.27	16782.37
887.45	16788.26
887.62	16743.29
887.80	16774.50
887.98	16942.93
888.15	16851.51
888.33	16797.93
888.51	16887.14
888.68	16754.51
888.86	16847.90
889.03	16754.60
889.21	16796.21
889.39	16779.01
889.56	16861.01
889.74	16818.98
889.91	16791.21
890.09	16742.14
890.27	16771.06
890.44	16765.49
890.62	16727.64
890.79	16750.34
890.97	16766.80
891.14	16712.82
891.32	16739.69
891.50	16645.81
891.67	16690.29
891.85	16632.46
892.02	16621.89
892.20	16751.73
892.38	16605.01
892.55	16473.70
892.73	16593.63
892.90	16476.81
893.08	16549.47
893.25	16505.24
893.43	16654.00
893.60	16458.13
893.78	16595.02
893.96	16532.10
894.13	16565.69
894.31	16691.60
894.48	16534.89
894.66	16636.80
894.83	16502.70
895.01	16500.98
895.18	16533.83
895.36	16432.66
895.53	16541.28
895.71	16395.96
895.89	16471.73
896.06	16303.31
896.24	16448.06
896.41	16337.14
896.59	16446.83
896.76	16219.01
896.94	16373.84
897.11	16381.87
897.29	16395.79
897.46	16218.03
897.64	16279.06
897.81	16238.92
897.99	16082.70
898.16	16266.03
898.34	16205.99
898.51	16181.74
898.69	16061.32
898.86	16108.50
899.04	16129.23
899.21	15973.58
899.39	16074.26
899.56	15973.42
899.74	16119.56
899.91	15957.04
900.09	15886.18
900.26	15921.97
900.44	15767.88
900.61	15777.72
900.79	15965.47
900.96	15785.66
901.14	15748.55
901.31	15725.45
901.49	15659.18
901.66	15738.80
901.84	15693.99
902.01	15564.97
902.19	15568.49
902.36	15433.90
902.54	15507.14
902.71	15427.76
902.88	15484.20
903.06	15317.74
903.23	15578.00
903.41	15332.40
903.58	15314.55
903.76	15241.23
903.93	15286.61
904.11	15317.99
904.28	15227.30
904.45	15195.44
904.63	15143.75
904.80	15014.31
904.98	15117.78
905.15	14915.77
905.33	15037.50
905.50	14978.93
905.68	14904.46
905.85	14860.88
906.02	14806.90
906.20	14919.78
906.37	14735.05
906.55	14628.07
906.72	14828.44
906.90	14638.23
907.07	14538.12
907.24	14632.08
907.42	14471.68
907.59	14449.24
907.77	14426.30
907.94	14332.83
908.11	14359.70
908.29	14302.60
908.46	14284.75
908.64	14184.56
908.81	14205.04
908.98	14065.37
909.16	14110.91
909.33	13975.26
909.51	13936.35
909.68	13878.02
909.85	13925.37
910.03	13887.28
910.20	13772.18
910.37	13742.12
910.55	13706.73
910.72	13669.95
910.90	13568.69
911.07	13528.47
911.24	13490.63
911.42	13560.75
911.59	13387.65
911.76	13452.12
911.94	13351.20
912.11	13332.44
912.29	13376.27
912.46	13256.58
912.63	13309.91
912.81	13184.66
912.98	13246.84
913.15	13089.22
913.33	13154.76
913.50	13119.86
913.67	12987.64
913.85	12983.71
914.02	12978.06
914.19	12900.32
914.37	12820.94
914.54	12869.93
914.71	12776.62
914.89	12782.44
915.06	12774.00
915.23	12693.06
915.41	12665.21
915.58	12586.98
915.75	12512.43
915.93	12491.63
916.10	12424.13
916.27	12389.80
916.45	12397.83
916.62	12279.70
916.79	12353.76
916.97	12194.43
917.14	12266.43
917.31	12145.77
917.49	12154.94
917.66	12165.59
917.83	12087.36
918.00	12001.75
918.18	12016.25
918.35	11921.80
918.52	11989.30
918.70	11861.02
918.87	11878.46
919.04	11833.33
919.21	11801.30
919.39	11682.02
919.56	11768.20
919.73	11592.57
919.91	11640.65
920.08	11656.46
920.25	11514.25
920.42	11611.74
920.60	11480.59
920.77	11424.47
920.94	11471.41
921.11	11335.83
921.29	11412.92
921.46	11232.45
921.63	11285.37
921.81	11209.76
921.98	11223.11
922.15	11142.01
922.32	11191.90
922.50	11106.79
922.67	11116.13
922.84	11026.59
923.01	10962.29
923.19	10923.70
923.36	10914.12
923.53	10717.76
923.70	10834.98
923.87	10772.64
924.05	10776.58
924.22	10668.03
924.39	10679.50
924.56	10544.09
924.74	10584.80
924.91	10597.09
925.08	10531.56
925.25	10514.03
925.43	10522.14
925.60	10452.83
925.77	10474.79
925.94	10421.38
926.11	10447.59
926.29	10375.01
926.46	10332.25
926.63	10361.25
926.80	10300.96
926.97	10205.52
927.15	10214.86
927.32	10096.90
927.49	10097.55
927.66	10066.75
927.83	10077.97
928.01	10036.52
928.18	9959.44
928.35	9854.83
928.52	9941.82
928.69	9822.88
928.87	9828.69
929.04	9773.40
929.21	9824.76
929.38	9662.07
929.55	9739.89
929.72	9649.05
929.90	9618.74
930.07	9642.00
930.24	9575.97
930.41	9542.88
930.58	9533.21
930.75	9520.19
930.93	9464.81
931.10	9466.61
931.27	9372.49
931.44	9383.47
931.61	9333.58
931.78	9358.97
931.95	9328.74
932.13	9258.62
932.30	9313.51
932.47	9156.30
932.64	9183.17
932.81	9204.23
932.98	9167.94
933.15	9173.26
933.33	9076.19
933.50	9147.62
933.67	9060.62
933.84	9028.84
934.01	9053.17
934.18	9052.35
934.35	9003.53
934.52	8976.41
934.70	8989.85
934.87	8961.83
935.04	8924.15
935.21	8898.75
935.38	8854.60
935.55	8844.19
935.72	8846.41
935.89	8790.46
936.06	8809.46
936.24	8691.17
936.41	8785.70
936.58	8728.93
936.75	8687.16
936.92	8680.36
937.09	8669.71
937.26	8581.64
937.43	8581.40
937.60	8607.53
937.77	8568.95
937.94	8501.77
938.12	8552.40
938.29	8456.23
938.46	8512.75
938.63	8374.64
938.80	8431.57
938.97	8394.21
939.14	8376.44
939.31	8327.70
939.48	8334.33
939.65	8249.79
939.82	8226.44
939.99	8237.01
940.16	8177.46
940.33	8193.92
940.50	8186.88
940.67	8144.53
940.85	8165.25
941.02	8112.41
941.19	8124.05
941.36	8044.18
941.53	8077.60
941.70	7999.20
941.87	7948.66
942.04	7950.54
942.21	7962.17
942.38	7917.45
942.55	7887.06
942.72	7912.78
942.89	7876.16
943.06	7821.77
943.23	7861.33
943.40	7809.64
943.57	7819.47
943.74	7778.02
943.91	7734.69
944.08	7770.89
944.25	7742.30
944.42	7677.75
944.59	7679.56
944.76	7679.64
944.93	7644.66
945.10	7684.31
945.27	7634.09
945.44	7558.48
945.61	7548.65
945.78	7561.67
945.95	7531.61
946.12	7452.72
946.29	7523.66
946.46	7464.03
946.63	7432.32
946.80	7419.79
946.97	7422.49
947.14	7361.87
947.31	7389.73
947.48	7336.23
947.65	7344.10
947.82	7344.92
947.99	7364.66
948.16	7282.00
948.33	7342.13
948.50	7234.33
948.67	7272.42
948.84	7257.02
949.01	7209.67
949.18	7208.69
949.35	7224.09
949.52	7140.37
949.68	7167.24
949.85	7133.08
950.02	7121.20
950.19	7070.65
950.36	7079.17
950.53	7072.37
950.70	7029.69
950.87	6986.69
951.04	7051.81
951.21	6984.80
951.38	6939.75
951.55	6965.80
951.72	6952.36
951.89	6935.41
952.06	6953.92
952.23	6913.53
952.39	6899.28
952.56	6816.05
952.73	6878.96
952.90	6828.42
953.07	6853.16
953.24	6784.02
953.41	6784.02
953.58	6741.18
953.75	6770.26
953.92	6724.14
954.09	6689.81
954.25	6676.54
954.42	6659.50
954.59	6659.58
954.76	6653.69
954.93	6605.76
955.10	6638.94
955.27	6588.89
955.44	6588.56
955.61	6537.69
955.77	6575.04
955.94	6522.70
956.11	6525.89
956.28	6520.81
956.45	6524.34
956.62	6518.85
956.79	6537.03
956.96	6495.58
957.12	6522.04
957.29	6476.25
957.46	6473.22
957.63	6463.14
957.80	6441.19
957.97	6424.89
958.14	6481.00
958.30	6376.31
958.47	6402.20
958.64	6369.02
958.81	6386.55
958.98	6308.64
959.15	6292.83
959.32	6334.45
959.48	6301.27
959.65	6253.68
959.82	6272.35
959.99	6236.64
960.16	6225.33
960.33	6255.32
960.49	6242.86
960.66	6163.16
960.83	6191.34
961.00	6215.01
961.17	6184.95
961.33	6163.81
961.50	6163.40
961.67	6121.62
961.84	6147.18
962.01	6087.71
962.18	6109.58
962.34	6082.55
962.51	6084.68
962.68	6077.06
962.85	6109.83
963.02	6018.24
963.18	6050.85
963.35	6013.00
963.52	6016.93
963.69	6004.40
963.86	6021.52
964.02	5959.43
964.19	5982.53
964.36	5938.37
964.53	5982.94
964.69	5887.34
964.86	5988.26
965.03	5881.60
965.20	5925.84
965.37	5846.62
965.53	5848.59
965.70	5831.80
965.87	5854.81
966.04	5806.65
966.20	5819.43
966.37	5777.32
966.54	5787.81
966.71	5794.20
966.87	5788.87
967.04	5743.16
967.21	5749.06
967.38	5725.55
967.54	5757.09
967.71	5715.96
967.88	5726.53
968.05	5681.97
968.21	5695.89
968.38	5653.70
968.55	5659.52
968.72	5642.32
968.88	5589.64
969.05	5626.10
969.22	5602.34
969.39	5578.18
969.55	5612.09
969.72	5550.98
969.89	5594.15
970.05	5600.29
970.22	5581.78
970.39	5564.58
970.56	5588.74
970.72	5539.59
970.89	5556.79
971.06	5523.70
971.22	5515.10
971.39	5501.99
971.56	5529.19
971.73	5477.17
971.89	5514.69
972.06	5478.64
972.23	5475.29
972.39	5416.63
972.56	5474.63
972.73	5384.19
972.89	5442.35
973.06	5441.53
973.23	5411.31
973.39	5383.62
973.56	5410.82
973.73	5370.92
973.89	5370.27
974.06	5352.00
974.23	5372.97
974.39	5337.09
974.56	5344.63
974.73	5293.92
974.89	5274.99
975.06	5289.25
975.23	5305.63
975.39	5284.66
975.56	5284.01
975.73	5242.23
975.89	5246.65
976.06	5265.49
976.23	5224.20
976.39	5235.59
976.56	5223.79
976.73	5219.54
976.89	5207.33
977.06	5178.99
977.23	5185.87
977.39	5168.83
977.56	5181.61
977.72	5145.15
977.89	5156.38
978.06	5112.79
978.22	5124.02
978.39	5116.40
978.56	5119.92
978.72	5083.39
978.89	5086.42
979.05	5078.47
979.22	5092.40
979.39	5062.74
979.55	5056.84
979.72	5013.76
979.88	5041.12
980.05	5020.55
980.22	5043.33
980.38	5038.25
980.55	5009.74
980.71	5014.98
980.88	5000.24
981.05	5005.40
981.21	4992.29
981.38	4957.48
981.54	4979.84
981.71	4985.41
981.88	4987.38
982.04	4959.69
982.21	4936.01
982.37	4936.59
982.54	4934.95
982.70	4924.63
982.87	4927.74
983.04	4870.97
983.20	4939.21
983.37	4874.98
983.53	4904.31
983.70	4873.26
983.86	4889.81
984.03	4851.15
984.20	4877.61
984.36	4851.39
984.53	4830.58
984.69	4857.37
984.86	4830.67
985.02	4828.29
985.19	4834.19
985.35	4809.29
985.52	4808.22
985.68	4787.33
985.85	4813.46
986.02	4800.44
986.18	4786.18
986.35	4764.15
986.51	4792.41
986.68	4752.68
986.84	4729.17
987.01	4733.10
987.17	4757.27
987.34	4745.80
987.50	4718.27
987.67	4734.82
987.83	4733.18
988.00	4712.54
988.16	4691.08
988.33	4703.04
988.49	4694.68
988.66	4662.00
988.82	4690.91
988.99	4656.67
989.15	4666.50
989.32	4615.14
989.48	4640.29
989.65	4618.17
989.81	4601.87
989.98	4582.21
990.14	4581.88
990.31	4604.90
990.47	4589.01
990.64	4570.74
990.80	4582.04
990.97	4541.00
991.13	4558.21
991.30	4537.48
991.46	4548.13
991.63	4548.13
991.79	4554.19
991.95	4520.77
992.12	4554.52
992.28	4519.38
992.45	4519.46
992.61	4513.72
992.78	4505.45
992.94	4495.29
993.11	4515.53
993.27	4481.45
993.44	4484.89
993.60	4488.90
993.76	4475.47
993.93	4474.98
994.09	4477.76
994.26	4445.08
994.42	4425.17
994.59	4436.72
994.75	4455.15
994.91	4435.08
995.08	4401.25
995.24	4398.30
995.41	4404.44
995.57	4407.72
995.74	4399.53
995.90	4380.61
996.06	4379.70
996.23	4387.08
996.39	4362.66
996.56	4359.63
996.72	4367.74
996.88	4350.79
997.05	4370.94
997.21	4312.78
997.38	4354.06
997.54	4327.19
997.70	4329.24
997.87	4343.09
998.03	4307.62
998.20	4287.22
998.36	4300.16
998.52	4293.12
998.69	4316.38
998.85	4283.37
999.02	4300.90
999.18	4265.10
999.34	4292.79
999.51	4259.04
999.67	4287.30
999.83	4276.81
1000.00	4272.96
1000.16	4243.15
1000.33	4252.40
1000.49	4232.99
1000.65	4249.94
1000.82	4251.99
1000.98	4212.10
1001.14	4212.75
1001.31	4229.71
1001.47	4227.17
1001.63	4210.71
1001.80	4195.30
1001.96	4194.57
1002.12	4164.50
1002.29	4181.30
1002.45	4175.15
1002.61	4167.94
1002.78	4174.09
1002.94	4159.42
1003.10	4142.88
1003.27	4168.76
1003.43	4139.27
1003.59	4124.94
1003.76	4137.31
1003.92	4131.65
1004.08	4124.45
1004.25	4144.19
1004.41	4121.74
1004.57	4142.55
1004.74	4124.77
1004.90	4146.89
1005.06	4103.47
1005.23	4115.68
1005.39	4090.20
1005.55	4119.20
1005.71	4103.31
1005.88	4104.05
1006.04	4104.70
1006.20	4088.73
1006.37	4058.75
1006.53	4087.09
1006.69	4086.43
1006.85	4080.45
1007.02	4048.26
1007.18	4063.91
1007.34	4035.32
1007.51	4071.44
1007.67	4039.41
1007.83	4029.58
1007.99	4021.31
1008.16	4005.58
1008.32	3998.37
1008.48	4031.47
1008.64	4001.16
1008.81	4012.63
1008.97	3997.14
1009.13	3995.34
1009.29	4007.87
1009.46	3999.03
1009.62	4005.58
1009.78	3976.83
1009.95	4001.49
1010.11	3976.58
1010.27	3971.58
1010.43	3965.28
1010.59	3976.83
1010.76	3975.76
1010.92	3946.44
1011.08	3946.60
1011.24	3949.55
1011.41	3966.34
1011.57	3926.04
1011.73	3943.32
1011.89	3920.22
1012.06	3915.88
1012.22	3903.43
1012.38	3915.72
1012.54	3898.10
1012.70	3899.25
1012.87	3860.99
1013.03	3892.53
1013.19	3880.57
1013.35	3890.40
1013.51	3869.84
1013.68	3873.77
1013.84	3851.82
1014.00	3869.68
1014.16	3866.97
1014.32	3868.78
1014.49	3840.51
1014.65	3881.72
1014.81	3831.50
1014.97	3852.88
1015.13	3829.78
1015.30	3832.98
1015.46	3835.03
1015.62	3834.13
1015.78	3825.36
1015.94	3833.06
1016.10	3820.44
1016.27	3806.85
1016.43	3810.53
1016.59	3818.40
1016.75	3804.80
1016.91	3818.31
1017.07	3793.90
1017.24	3804.39
1017.40	3784.89
1017.56	3784.65
1017.72	3764.41
1017.88	3766.21
1018.04	3770.88
1018.21	3772.69
1018.37	3761.14
1018.53	3775.06
1018.69	3762.04
1018.85	3784.48
1019.01	3758.76
1019.17	3748.85
1019.34	3743.44
1019.50	3768.92
1019.66	3705.27
1019.82	3735.50
1019.98	3714.11
1020.14	3738.85
1020.30	3736.23
1020.46	3742.62
1020.63	3714.44
1020.79	3703.79
1020.95	3708.79
1021.11	3721.32
1021.27	3707.97
1021.43	3707.31
1021.59	3703.06
1021.75	3686.92
1021.91	3687.98
1022.07	3694.62
1022.24	3697.98
1022.40	3689.87
1022.56	3669.55
1022.72	3703.14
1022.88	3671.68
1023.04	3689.13
1023.20	3649.81
1023.36	3652.51
1023.52	3665.29
1023.68	3658.00
1023.84	3640.55
1024.01	3659.80
1024.17	3643.42
1024.33	3657.67
1024.49	3620.07
1024.65	3624.90
1024.81	3624.33
1024.97	3634.57
1025.13	3630.72
1025.29	3642.35
1025.45	3604.92
1025.61	3635.80
1025.77	3617.78
1025.93	3611.72
1026.09	3590.17
1026.25	3623.02
1026.41	3595.09
1026.57	3592.87
1026.73	3599.26
1026.90	3613.44
1027.06	3603.52
1027.22	3614.42
1027.38	3607.54
1027.54	3613.03
1027.70	3578.87
1027.86	3594.68
1028.02	3585.17
1028.18	3593.45
1028.34	3578.78
1028.50	3604.34
1028.66	3569.77
1028.82	3609.34
1028.98	3562.97
1029.14	3555.77
1029.30	3569.53
1029.46	3567.15
1029.62	3582.72
1029.78	3565.60
1029.94	3560.11
1030.10	3543.07
1030.26	3532.99
1030.42	3550.52
1030.58	3530.86
1030.74	3547.98
1030.90	3535.61
1031.06	3559.37
1031.22	3533.81
1031.38	3527.67
1031.54	3527.09
1031.70	3544.79
1031.86	3557.57
1032.02	3518.57
1032.18	3506.53
1032.34	3528.98
1032.50	3508.50
1032.66	3520.29
1032.82	3497.11
1032.98	3528.32
1033.14	3517.18
1033.30	3528.57
1033.45	3513.17
1033.61	3536.10
1033.77	3476.80
1033.93	3498.83
1034.09	3502.76
1034.25	3515.22
1034.41	3480.07
1034.57	3487.61
1034.73	3486.71
1034.89	3495.06
1035.05	3480.56
1035.21	3474.50
1035.37	3487.04
1035.53	3468.60
1035.69	3483.43
1035.85	3489.66
1036.01	3467.87
1036.16	3466.47
1036.32	3462.62
1036.48	3478.60
1036.64	3458.12
1036.80	3479.09
1036.96	3464.75
1037.12	3459.67
1037.28	3452.55
1037.44	3450.99
1037.60	3475.57
1037.76	3438.54
1037.91	3444.44
1038.07	3457.22
1038.23	3436.82
1038.39	3457.87
1038.55	3452.71
1038.71	3454.27
1038.87	3433.71
1039.03	3466.80
1039.19	3411.18
1039.35	3439.11
1039.50	3433.79
1039.66	3448.53
1039.82	3439.44
1039.98	3419.37
1040.14	3422.40
1040.30	3434.61
1040.46	3417.40
1040.62	3416.26
1040.77	3421.58
1040.93	3443.21
1041.09	3404.87
1041.25	3409.05
1041.41	3403.56
1041.57	3404.54
1041.73	3404.54
1041.88	3404.54

