SpectraSuite Data File
++++++++++++++++++++++++++++++++++++
Date: Tue Sep 20 12:11:20 EDT 2022
User: Laboratoire
Dark Spectrum Present: No
Reference Spectrum Present: No
Number of Sampled Component Spectra: 1
Spectrometers: FLMT00174
Integration Time (usec): 15000 (FLMT00174)
Spectra Averaged: 25 (FLMT00174)
Boxcar Smoothing: 0 (FLMT00174)
Correct for Electrical Dark: No (FLMT00174)
Strobe/Lamp Enabled: No (FLMT00174)
Correct for Detector Non-linearity: No (FLMT00174)
Correct for Stray Light: No (FLMT00174)
Number of Pixels in Processed Spectrum: 3648
>>>>>Begin Processed Spectral Data<<<<<
345.74	3164.52
345.96	3164.52
346.18	3164.52
346.39	3180.25
346.61	3220.06
346.83	3230.06
347.05	3218.75
347.27	3202.70
347.49	3218.18
347.71	3225.22
347.93	3231.45
348.15	3232.84
348.36	3223.18
348.58	3231.04
348.80	3214.16
349.02	3225.71
349.24	3226.29
349.46	3302.23
349.68	3336.47
349.90	3320.74
350.11	3305.91
350.33	3317.55
350.55	3296.66
350.77	3330.90
350.99	3299.03
351.21	3321.56
351.43	3298.70
351.65	3329.51
351.86	3308.70
352.08	3328.52
352.30	3293.38
352.52	3334.18
352.74	3302.72
352.96	3309.44
353.18	3318.94
353.39	3310.91
353.61	3303.95
353.83	3337.12
354.05	3329.01
354.27	3329.75
354.49	3314.10
354.70	3320.41
354.92	3316.64
355.14	3315.66
355.36	3301.82
355.58	3329.92
355.80	3307.88
356.02	3319.84
356.23	3317.14
356.45	3308.21
356.67	3321.07
356.89	3333.60
357.11	3315.17
357.33	3325.00
357.54	3319.76
357.76	3303.13
357.98	3305.09
358.20	3317.22
358.42	3297.15
358.63	3306.73
358.85	3324.34
359.07	3332.21
359.29	3306.65
359.51	3312.71
359.73	3313.45
359.94	3321.56
360.16	3296.98
360.38	3311.32
360.60	3299.61
360.82	3308.04
361.03	3318.20
361.25	3327.54
361.47	3336.14
361.69	3328.11
361.91	3302.06
362.12	3331.96
362.34	3304.52
362.56	3329.26
362.78	3317.14
363.00	3333.03
363.21	3308.45
363.43	3334.26
363.65	3305.01
363.87	3340.48
364.09	3320.58
364.30	3318.53
364.52	3306.81
364.74	3325.74
364.96	3326.88
365.17	3317.87
365.39	3299.85
365.61	3297.48
365.83	3299.36
366.05	3309.76
366.26	3307.63
366.48	3312.38
366.70	3327.79
366.92	3340.89
367.13	3318.53
367.35	3342.94
367.57	3325.16
367.79	3339.34
368.01	3321.48
368.22	3340.40
368.44	3299.36
368.66	3327.13
368.88	3335.49
369.09	3321.56
369.31	3342.37
369.53	3322.71
369.75	3312.14
369.96	3336.63
370.18	3306.90
370.40	3346.30
370.62	3315.74
370.83	3322.05
371.05	3347.04
371.27	3334.99
371.49	3328.36
371.70	3337.04
371.92	3344.33
372.14	3343.51
372.36	3331.80
372.57	3355.06
372.79	3349.49
373.01	3331.14
373.22	3336.39
373.44	3327.79
373.66	3330.00
373.88	3339.25
374.09	3336.88
374.31	3354.74
374.53	3323.36
374.75	3377.51
374.96	3338.11
375.18	3344.50
375.40	3332.21
375.61	3339.42
375.83	3326.31
376.05	3336.96
376.27	3355.31
376.48	3329.01
376.70	3345.56
376.92	3335.81
377.13	3335.40
377.35	3346.79
377.57	3326.64
377.79	3338.35
378.00	3346.05
378.22	3369.89
378.44	3307.72
378.65	3372.35
378.87	3349.58
379.09	3366.70
379.30	3329.51
379.52	3370.96
379.74	3350.39
379.96	3343.92
380.17	3336.80
380.39	3338.84
380.61	3344.58
380.82	3359.00
381.04	3354.57
381.26	3353.02
381.47	3357.93
381.69	3367.35
381.91	3351.79
382.12	3371.53
382.34	3366.37
382.56	3354.57
382.77	3348.43
382.99	3355.56
383.21	3352.28
383.42	3385.95
383.64	3359.49
383.86	3365.88
384.07	3373.00
384.29	3368.74
384.51	3348.59
384.72	3364.24
384.94	3365.30
385.16	3366.12
385.37	3381.44
385.59	3368.74
385.81	3380.95
386.02	3380.05
386.24	3393.81
386.46	3381.44
386.67	3389.22
386.89	3417.81
387.11	3417.16
387.32	3397.01
387.54	3398.32
387.76	3406.18
387.97	3422.89
388.19	3426.99
388.40	3428.30
388.62	3398.15
388.84	3443.21
389.05	3430.02
389.27	3429.86
389.49	3440.51
389.70	3424.04
389.92	3440.26
390.14	3428.63
390.35	3446.16
390.57	3453.12
390.78	3447.88
391.00	3439.77
391.22	3444.19
391.43	3443.54
391.65	3456.40
391.86	3483.51
392.08	3490.15
392.30	3453.20
392.51	3466.31
392.73	3498.09
392.95	3477.78
393.16	3451.73
393.38	3486.79
393.59	3484.66
393.81	3502.44
394.03	3474.42
394.24	3474.91
394.46	3489.66
394.67	3501.13
394.89	3481.63
395.11	3503.34
395.32	3516.69
395.54	3508.33
395.75	3512.35
395.97	3495.23
396.19	3486.87
396.40	3519.48
396.62	3505.63
396.83	3499.98
397.05	3507.52
397.26	3514.97
397.48	3477.86
397.70	3519.23
397.91	3528.73
398.13	3492.36
398.34	3510.05
398.56	3520.95
398.78	3515.05
398.99	3560.76
399.21	3512.18
399.42	3541.84
399.64	3508.42
399.85	3516.20
400.07	3542.82
400.29	3559.86
400.50	3537.74
400.72	3560.19
400.93	3543.15
401.15	3548.64
401.36	3549.29
401.58	3577.06
401.79	3567.89
402.01	3570.84
402.23	3570.84
402.44	3605.49
402.66	3586.57
402.87	3615.16
403.09	3595.58
403.30	3618.43
403.52	3592.55
403.73	3599.76
403.95	3604.51
404.16	3626.62
404.38	3623.84
404.60	3612.86
404.81	3640.31
405.03	3668.16
405.24	3667.42
405.46	3693.22
405.67	3682.74
405.89	3698.55
406.10	3687.08
406.32	3703.06
406.53	3725.75
406.75	3754.09
406.96	3740.25
407.18	3727.22
407.39	3744.34
407.61	3773.42
407.82	3781.12
408.04	3816.35
408.25	3797.26
408.47	3830.44
408.68	3834.62
408.90	3851.82
409.12	3859.36
409.33	3872.95
409.55	3858.46
409.76	3889.26
409.98	3887.37
410.19	3902.77
410.41	3941.44
410.62	3948.16
410.84	3939.88
411.05	3961.26
411.27	3974.70
411.48	3965.20
411.70	3987.48
411.91	4013.53
412.12	4009.51
412.34	4006.24
412.55	4020.57
412.77	4019.83
412.98	4050.96
413.20	4049.90
413.41	4057.19
413.63	4054.81
413.84	4058.99
414.06	4101.34
414.27	4081.11
414.49	4098.48
414.70	4060.22
414.92	4115.35
415.13	4090.61
415.35	4105.93
415.56	4127.97
415.78	4110.36
415.99	4105.44
416.21	4120.27
416.42	4134.11
416.63	4162.95
416.85	4141.57
417.06	4118.30
417.28	4119.20
417.49	4152.46
417.71	4137.55
417.92	4108.39
418.14	4134.77
418.35	4147.63
418.57	4146.15
418.78	4134.36
418.99	4140.58
419.21	4146.56
419.42	4143.45
419.64	4135.59
419.85	4146.73
420.07	4166.88
420.28	4140.99
420.50	4145.33
420.71	4157.05
420.92	4155.08
421.14	4165.24
421.35	4133.29
421.57	4169.34
421.78	4177.94
422.00	4181.46
422.21	4183.02
422.42	4166.47
422.64	4180.31
422.85	4205.87
423.07	4221.52
423.28	4202.51
423.50	4225.78
423.71	4226.68
423.92	4279.68
424.14	4244.78
424.35	4265.10
424.57	4273.87
424.78	4301.39
424.99	4286.15
425.21	4310.16
425.42	4308.11
425.64	4311.06
425.85	4332.44
426.06	4323.02
426.28	4369.38
426.49	4379.29
426.71	4377.08
426.92	4380.28
427.13	4414.77
427.35	4462.77
427.56	4493.33
427.78	4470.31
427.99	4510.69
428.20	4528.88
428.42	4553.29
428.63	4581.88
428.84	4547.31
429.06	4591.14
429.27	4632.26
429.49	4630.29
429.70	4677.15
429.91	4693.86
430.13	4707.87
430.34	4736.71
430.56	4766.69
430.77	4819.28
430.98	4773.08
431.20	4842.54
431.41	4907.10
431.62	4897.84
431.84	4909.31
432.05	4965.75
432.26	4978.04
432.48	4970.34
432.69	5043.33
432.91	5048.65
433.12	5101.98
433.33	5125.25
433.55	5203.23
433.76	5205.94
433.97	5206.67
434.19	5261.40
434.40	5342.41
434.61	5364.70
434.83	5396.73
435.04	5385.09
435.25	5441.94
435.47	5454.81
435.68	5444.98
435.89	5567.53
436.11	5565.56
436.32	5603.49
436.53	5629.87
436.75	5634.04
436.96	5687.37
437.17	5684.26
437.39	5737.18
437.60	5789.53
437.81	5835.15
438.03	5835.73
438.24	5867.76
438.45	5942.80
438.67	5927.97
438.88	5977.28
439.09	6034.63
439.31	6022.42
439.52	6069.03
439.73	6058.96
439.94	6013.57
440.16	6095.00
440.37	6068.79
440.58	6155.62
440.80	6149.31
441.01	6106.96
441.22	6281.12
441.44	6233.36
441.65	6188.96
441.86	6216.81
442.08	6246.55
442.29	6226.23
442.50	6267.11
442.71	6239.83
442.93	6300.94
443.14	6248.43
443.35	6314.62
443.57	6240.82
443.78	6302.58
443.99	6308.48
444.20	6239.42
444.42	6311.43
444.63	6263.67
444.84	6343.21
445.06	6367.05
445.27	6261.05
445.48	6245.40
445.69	6290.87
445.91	6305.61
446.12	6248.43
446.33	6282.10
446.54	6362.88
446.76	6272.27
446.97	6289.97
447.18	6285.63
447.39	6325.93
447.61	6330.52
447.82	6339.86
448.03	6314.87
448.25	6308.24
448.46	6340.92
448.67	6380.24
448.88	6282.92
449.10	6369.67
449.31	6354.03
449.52	6348.13
449.73	6333.55
449.95	6444.71
450.16	6341.33
450.37	6429.15
450.58	6524.50
450.79	6350.91
451.01	6404.65
451.22	6368.28
451.43	6388.76
451.64	6425.71
451.86	6448.07
452.07	6453.15
452.28	6487.23
452.49	6575.45
452.71	6506.40
452.92	6479.94
453.13	6531.14
453.34	6586.10
453.55	6638.12
453.77	6660.24
453.98	6635.75
454.19	6577.58
454.40	6651.88
454.62	6693.34
454.83	6647.30
455.04	6735.93
455.25	6667.53
455.46	6907.63
455.68	6808.02
455.89	6813.76
456.10	6843.98
456.31	6874.05
456.52	6935.90
456.74	6918.86
456.95	7090.31
457.16	7022.32
457.37	7122.67
457.58	7130.78
457.80	7078.68
458.01	7115.22
458.22	7393.58
458.43	7261.11
458.64	7378.09
458.86	7260.70
459.07	7370.56
459.28	7375.88
459.49	7563.64
459.70	7695.78
459.91	7628.36
460.13	7625.82
460.34	7756.39
460.55	7705.03
460.76	7826.93
460.97	7892.87
461.19	7901.80
461.40	8154.85
461.61	8052.61
461.82	8124.29
462.03	8212.85
462.24	8253.48
462.46	8273.63
462.67	8333.02
462.88	8489.90
463.09	8475.23
463.30	8677.08
463.51	8610.81
463.72	8816.26
463.94	8863.04
464.15	8902.93
464.36	8883.27
464.57	9195.22
464.78	9249.36
464.99	9295.32
465.20	9276.15
465.42	9505.11
465.63	9543.70
465.84	9586.46
466.05	9723.02
466.26	9840.08
466.47	9983.44
466.68	9946.90
466.90	10183.48
467.11	10182.09
467.32	10375.91
467.53	10536.39
467.74	10397.87
467.95	10601.76
468.16	10763.63
468.37	10936.73
468.59	10946.31
468.80	11194.03
469.01	11079.18
469.22	11287.17
469.43	11616.82
469.64	11531.21
469.85	11714.71
470.06	11770.25
470.28	11982.26
470.49	11792.86
470.70	12086.29
470.91	12346.63
471.12	12250.46
471.33	12551.67
471.54	12501.95
471.75	12621.14
471.96	12941.61
472.17	12905.81
472.39	13231.68
472.60	12967.00
472.81	13323.27
473.02	13215.79
473.23	13549.20
473.44	13622.60
473.65	13607.11
473.86	13670.36
474.07	13809.78
474.28	13912.75
474.49	14271.15
474.71	14205.94
474.92	14339.22
475.13	14304.82
475.34	14403.94
475.55	14436.38
475.76	14538.45
475.97	14897.17
476.18	14789.12
476.39	15021.20
476.60	15114.66
476.81	15086.65
477.02	15261.55
477.23	15241.47
477.44	15173.32
477.65	15374.02
477.87	15511.56
478.08	15583.73
478.29	15600.85
478.50	15861.03
478.71	15648.04
478.92	15838.58
479.13	15816.05
479.34	15877.33
479.55	15976.94
479.76	15895.43
479.97	15995.05
480.18	16348.52
480.39	16061.15
480.60	16371.54
480.81	16362.94
481.02	16320.10
481.23	16337.63
481.44	16594.12
481.65	16655.88
481.86	16834.47
482.07	16372.61
482.28	17074.24
482.49	16751.16
482.71	16760.74
482.92	16912.04
483.13	17050.08
483.34	16889.76
483.55	16958.33
483.76	16929.57
483.97	17122.58
484.18	17121.76
484.39	17205.48
484.60	17068.34
484.81	17394.63
485.02	17207.12
485.23	17449.19
485.44	17475.40
485.65	17558.38
485.86	17351.21
486.07	17610.73
486.28	17572.15
486.49	17704.03
486.70	17719.03
486.91	17900.48
487.12	17744.50
487.33	17708.05
487.54	17999.84
487.75	18029.74
487.96	18026.14
488.17	17947.99
488.38	18101.18
488.59	18201.53
488.80	18249.29
489.01	18251.83
489.22	18475.14
489.43	18425.74
489.64	18316.87
489.85	18705.08
490.06	18368.64
490.26	18701.56
490.47	18561.48
490.68	18868.18
490.89	19057.91
491.10	18748.99
491.31	19009.90
491.52	19251.89
491.73	19117.38
491.94	19127.37
492.15	19280.15
492.36	19434.73
492.57	19447.43
492.78	19470.20
492.99	19603.65
493.20	19843.75
493.41	19789.93
493.62	19905.52
493.83	19915.27
494.04	20038.47
494.25	20211.81
494.46	20286.28
494.67	20162.25
494.88	20436.43
495.08	20525.48
495.29	20634.19
495.50	20862.58
495.71	20787.62
495.92	21090.31
496.13	21093.10
496.34	21034.69
496.55	21279.71
496.76	21614.18
496.97	21359.66
497.18	21697.08
497.39	21710.76
497.60	22142.80
497.81	21913.59
498.02	22223.49
498.22	22090.29
498.43	22541.50
498.64	22595.65
498.85	22663.89
499.06	22813.31
499.27	23229.78
499.48	22834.52
499.69	23234.12
499.90	23399.85
500.11	23670.26
500.32	24020.87
500.52	23797.40
500.73	24327.25
500.94	24443.08
501.15	24559.08
501.36	24660.25
501.57	24623.22
501.78	24971.87
501.99	25306.59
502.20	25282.91
502.41	25494.84
502.61	25568.56
502.82	25992.90
503.03	25976.03
503.24	26409.05
503.45	26348.18
503.66	26772.52
503.87	26860.09
504.08	27263.30
504.28	27177.61
504.49	27520.60
504.70	27667.40
504.91	27951.82
505.12	27963.05
505.33	28521.98
505.54	28571.79
505.75	28792.31
505.95	29192.65
506.16	29174.30
506.37	29161.03
506.58	29841.03
506.79	29601.59
507.00	30257.35
507.21	30150.85
507.41	30356.06
507.62	30643.67
507.83	31233.49
508.04	31007.31
508.25	31645.46
508.46	31505.95
508.67	32097.98
508.87	32037.03
509.08	32595.39
509.29	32618.98
509.50	32858.02
509.71	33114.75
509.92	33347.32
510.12	33140.72
510.33	33551.38
510.54	33641.16
510.75	34007.34
510.96	34326.17
511.17	34662.85
511.37	34745.67
511.58	35149.94
511.79	34965.05
512.00	35094.65
512.21	35588.45
512.42	35799.97
512.62	36088.49
512.83	36369.71
513.04	36322.45
513.25	36785.12
513.46	36193.83
513.66	37269.18
513.87	36985.82
514.08	37414.42
514.29	37281.22
514.50	37491.02
514.71	37858.34
514.91	37737.18
515.12	37821.48
515.33	38253.84
515.54	38224.76
515.75	38761.17
515.95	38526.96
516.16	38572.26
516.37	39137.91
516.58	39204.18
516.78	38891.99
516.99	39242.85
517.20	39136.68
517.41	39231.63
517.62	39598.21
517.82	39428.81
518.03	39933.34
518.24	40291.00
518.45	39514.98
518.66	39974.06
518.86	39675.79
519.07	40292.80
519.28	39478.53
519.49	40266.34
519.69	40267.33
519.90	40305.66
520.11	40437.22
520.32	40276.42
520.52	40622.36
520.73	40149.20
520.94	40577.88
521.15	40454.67
521.36	39903.85
521.56	40653.57
521.77	39860.84
521.98	40553.71
522.19	39896.89
522.39	40258.97
522.60	39987.49
522.81	40198.43
523.02	39879.69
523.22	40156.16
523.43	40229.97
523.64	40047.05
523.84	39963.16
524.05	40282.64
524.26	40093.58
524.47	39673.82
524.67	39746.81
524.88	39830.45
525.09	40062.53
525.30	39596.08
525.50	39503.35
525.71	39499.17
525.92	39464.11
526.13	39683.90
526.33	39333.86
526.54	39043.87
526.75	39291.59
526.95	39485.98
527.16	38550.64
527.37	39009.63
527.58	38988.41
527.78	38868.07
527.99	39031.74
528.20	39117.76
528.40	38596.51
528.61	38235.49
528.82	38615.68
529.03	38372.87
529.23	38139.98
529.44	38474.45
529.65	38241.88
529.85	38163.49
530.06	38003.01
530.27	37993.83
530.47	37569.66
530.68	38241.47
530.89	37462.10
531.09	37872.35
531.30	37563.43
531.51	37185.46
531.72	37664.03
531.92	37542.54
532.13	37650.51
532.34	37310.80
532.54	37342.01
532.75	37324.23
532.96	37097.32
533.16	37296.79
533.37	37300.97
533.58	37013.02
533.78	37193.41
533.99	37076.75
534.20	36665.44
534.40	36753.75
534.61	36804.37
534.82	36813.79
535.02	36805.68
535.23	36793.72
535.44	36782.26
535.64	36620.06
535.85	36690.67
536.06	36621.37
536.26	36488.99
536.47	36438.85
536.68	36868.76
536.88	36245.77
537.09	36762.84
537.29	36247.65
537.50	36870.48
537.71	36435.99
537.91	36554.44
538.12	36615.63
538.33	36338.17
538.53	36548.13
538.74	36593.68
538.95	36588.11
539.15	36380.85
539.36	36518.48
539.56	36707.63
539.77	36326.87
539.98	36471.29
540.18	36635.38
540.39	36364.88
540.60	36527.41
540.80	36734.99
541.01	36636.52
541.21	36683.05
541.42	36793.40
541.63	36720.98
541.83	36885.23
542.04	36875.23
542.25	36800.85
542.45	36965.26
542.66	36917.59
542.86	37106.08
543.07	36363.16
543.28	37181.12
543.48	37042.76
543.69	37306.62
543.89	37146.55
544.10	37588.83
544.31	37381.57
544.51	37329.23
544.72	37687.38
544.92	37494.87
545.13	37837.04
545.33	37842.04
545.54	37618.24
545.75	37816.64
545.95	37621.60
546.16	37784.12
546.36	38260.15
546.57	37685.82
546.78	37215.11
546.98	37755.12
547.19	37348.97
547.39	38216.90
547.60	38480.02
547.80	38985.87
548.01	39099.25
548.22	38851.52
548.42	38977.76
548.63	39337.88
548.83	39162.65
549.04	39433.56
549.24	39203.28
549.45	39510.31
549.65	39876.49
549.86	39419.96
550.07	39755.50
550.27	40174.51
550.48	40394.22
550.68	40234.15
550.89	40343.35
551.09	40825.36
551.30	40664.14
551.50	40995.01
551.71	40808.97
551.91	40892.78
552.12	41168.02
552.33	41544.27
552.53	41202.43
552.74	42006.05
552.94	42148.92
553.15	41974.76
553.35	42455.87
553.56	42180.95
553.76	42748.23
553.97	42412.45
554.17	42736.60
554.38	43477.15
554.58	43046.26
554.79	43667.12
554.99	43278.09
555.20	43569.22
555.40	44101.53
555.61	43976.03
555.81	43870.52
556.02	44859.44
556.22	44696.02
556.43	44728.05
556.63	45047.61
556.84	45107.25
557.04	45876.96
557.25	45361.69
557.45	45905.87
557.66	45970.18
557.86	45962.23
558.07	46724.57
558.27	46436.79
558.48	46552.95
558.68	46767.33
558.89	46998.10
559.09	47093.70
559.30	47124.83
559.50	47495.34
559.71	47353.13
559.91	48247.44
560.12	48034.70
560.32	48217.54
560.53	48534.89
560.73	48381.46
560.94	49012.64
561.14	48729.61
561.35	49555.44
561.55	49410.36
561.76	49837.57
561.96	49388.90
562.17	50065.95
562.37	50391.75
562.57	50278.12
562.78	50351.52
562.98	50785.61
563.19	50901.20
563.39	51181.03
563.60	51310.22
563.80	50902.84
564.01	51684.18
564.21	51516.16
564.42	51501.66
564.62	51881.11
564.82	52345.59
565.03	52166.27
565.23	52384.66
565.44	52802.37
565.64	52800.81
565.85	53267.75
566.05	53141.76
566.25	53446.17
566.46	53195.99
566.66	53546.76
566.87	53706.34
567.07	53696.35
567.28	54038.52
567.48	54451.72
567.68	53829.47
567.89	54965.02
568.09	54479.41
568.30	54604.58
568.50	55050.71
568.71	54917.84
568.91	55238.47
569.11	54865.08
569.32	54957.24
569.52	55223.31
569.73	54590.74
569.93	55364.62
570.13	55252.23
570.34	55141.15
570.54	55714.99
570.75	55499.63
570.95	55494.55
571.15	55343.49
571.36	56065.68
571.56	55417.71
571.77	55430.73
571.97	55145.49
572.17	56085.26
572.38	55916.43
572.58	56202.00
572.79	55865.80
572.99	55923.31
573.19	55817.63
573.40	55718.51
573.60	55767.34
573.81	55765.62
574.01	55986.14
574.21	55932.89
574.42	55999.41
574.62	55650.60
574.82	56354.94
575.03	55820.01
575.23	56367.31
575.43	55868.10
575.64	55717.78
575.84	56355.18
576.05	55706.72
576.25	55910.45
576.45	55557.05
576.66	56072.32
576.86	55426.80
577.06	55734.32
577.27	55411.56
577.47	55395.92
577.67	55217.33
577.88	54831.99
578.08	55350.37
578.28	55554.59
578.49	55240.19
578.69	55373.72
578.89	54919.31
579.10	54976.33
579.30	55490.94
579.50	54827.89
579.71	54336.79
579.91	54832.72
580.11	54523.65
580.32	54126.83
580.52	54047.70
580.72	54487.93
580.93	53778.76
581.13	53704.21
581.33	54087.18
581.54	53562.57
581.74	53612.05
581.94	53677.34
582.15	53815.79
582.35	53257.59
582.55	53263.57
582.76	52706.28
582.96	53231.38
583.16	52615.84
583.37	52797.04
583.57	52318.47
583.77	52789.34
583.97	51569.98
584.18	52553.58
584.38	52192.81
584.58	51747.26
584.79	51994.57
584.99	51781.74
585.19	51444.65
585.40	51359.70
585.60	51501.91
585.80	50872.04
586.00	51086.25
586.21	50934.54
586.41	50741.05
586.61	50876.87
586.82	50502.66
587.02	50150.25
587.22	50290.74
587.42	49654.07
587.63	50162.05
587.83	49420.93
588.03	49658.49
588.23	49262.17
588.44	49412.65
588.64	48984.79
588.84	49136.67
589.05	49070.97
589.25	48899.43
589.45	48827.51
589.65	48630.41
589.86	48766.07
590.06	48552.10
590.26	48216.23
590.46	48420.37
590.67	47645.09
590.87	48221.88
591.07	48241.62
591.27	47565.96
591.48	47772.39
591.68	47099.43
591.88	47861.77
592.08	47107.21
592.29	47429.32
592.49	47329.54
592.69	47412.52
592.89	46841.22
593.10	46854.74
593.30	46602.27
593.50	47161.03
593.70	46157.61
593.90	46816.57
594.11	46473.33
594.31	46406.81
594.51	46501.01
594.71	46338.82
594.92	46192.34
595.12	45888.59
595.32	45782.51
595.52	46026.38
595.72	45322.70
595.93	45917.02
596.13	45469.90
596.33	45244.79
596.53	45549.28
596.73	45354.07
596.94	45074.24
597.14	45386.02
597.34	45117.82
597.54	45313.85
597.74	44892.38
597.95	44873.45
598.15	44708.63
598.35	44763.68
598.55	44732.31
598.75	44503.67
598.96	44917.53
599.16	44542.66
599.36	44520.71
599.56	44342.46
599.76	44133.81
599.97	44670.95
600.17	44324.11
600.37	44477.13
600.57	43719.95
600.77	44472.62
600.97	44018.96
601.18	44485.81
601.38	44148.47
601.58	44305.35
601.78	43943.35
601.98	43794.01
602.18	43906.98
602.39	44052.38
602.59	43880.27
602.79	43699.80
602.99	43588.23
603.19	43576.35
603.39	43396.13
603.60	43432.09
603.80	43514.75
604.00	43481.49
604.20	43538.10
604.40	43738.22
604.60	43495.09
604.80	43451.43
605.01	43550.22
605.21	43295.62
605.41	43144.23
605.61	42985.80
605.81	43324.12
606.01	43668.10
606.21	43293.73
606.42	43671.30
606.62	43295.78
606.82	43689.32
607.02	43278.09
607.22	43446.02
607.42	43694.64
607.62	43194.45
607.82	43277.27
608.03	43355.33
608.23	43263.42
608.43	43168.72
608.63	43646.31
608.83	43489.03
609.03	43542.60
609.23	43605.68
609.43	43717.99
609.63	43571.35
609.84	43362.05
610.04	43872.24
610.24	43784.75
610.44	43766.98
610.64	43562.51
610.84	43733.47
611.04	44118.08
611.24	43779.76
611.44	43290.62
611.64	43837.84
611.85	43901.32
612.05	43842.67
612.25	44081.13
612.45	43773.28
612.65	43993.32
612.85	44166.90
613.05	43735.44
613.25	44372.60
613.45	44186.48
613.65	44341.64
613.85	43958.17
614.05	44356.46
614.25	44559.05
614.46	44515.39
614.66	44240.14
614.86	44164.61
615.06	44342.70
615.26	44779.41
615.46	44063.11
615.66	44732.72
615.86	44769.91
616.06	44554.54
616.26	44706.99
616.46	45284.11
616.66	44974.21
616.86	45432.06
617.06	45056.38
617.26	45523.31
617.46	45253.06
617.66	45183.11
617.86	45171.88
618.07	45474.90
618.27	45290.17
618.47	45475.97
618.67	45628.25
618.87	45830.43
619.07	45618.59
619.27	45660.12
619.47	45742.28
619.67	46151.30
619.87	45840.01
620.07	46325.95
620.27	46401.89
620.47	46188.17
620.67	46622.25
620.87	46576.95
621.07	46762.58
621.27	46702.45
621.47	46465.79
621.67	46914.46
621.87	46624.30
622.07	47190.20
622.27	47247.29
622.47	47097.71
622.67	47288.01
622.87	47125.56
623.07	47693.59
623.27	48009.88
623.47	47200.68
623.67	47790.66
623.87	48146.93
624.07	48080.98
624.27	47783.53
624.47	48134.56
624.67	47978.26
624.87	48213.61
625.07	47909.61
625.27	48489.43
625.47	48170.68
625.67	48230.57
625.87	48590.02
626.07	48730.02
626.27	48905.49
626.47	48847.25
626.67	48881.82
626.87	48677.35
627.07	49321.64
627.27	49314.43
627.47	49445.83
627.67	49500.88
627.87	49580.91
628.07	50055.06
628.27	49960.53
628.47	49849.36
628.67	50450.24
628.86	50517.41
629.06	50189.65
629.26	50204.89
629.46	50676.90
629.66	50550.42
629.86	50252.89
630.06	50896.77
630.26	50763.90
630.46	51200.86
630.66	50788.07
630.86	50929.05
631.06	51038.08
631.26	50929.62
631.46	51489.29
631.66	51501.09
631.86	51264.02
632.06	51777.89
632.26	51466.52
632.45	51604.47
632.65	51773.71
632.85	52008.82
633.05	51962.54
633.25	52169.96
633.45	51871.12
633.65	52016.69
633.85	52684.98
634.05	51885.53
634.25	52346.08
634.45	52314.95
634.65	52808.43
634.84	52527.94
635.04	52794.59
635.24	52474.20
635.44	53004.63
635.64	52925.74
635.84	53146.18
636.04	53121.20
636.24	52976.69
636.44	53161.25
636.64	52646.07
636.84	53684.80
637.03	53073.60
637.23	53570.77
637.43	53660.96
637.63	53457.31
637.83	53834.30
638.03	53869.69
638.23	53430.77
638.43	54101.76
638.62	54298.94
638.82	53253.50
639.02	54087.51
639.22	53605.66
639.42	53946.20
639.62	53577.16
639.82	53858.71
640.02	54027.46
640.21	54107.42
640.41	53498.60
640.61	54005.26
640.81	53967.09
641.01	53959.23
641.21	53940.55
641.41	54628.67
641.61	54014.44
641.80	54151.16
642.00	54433.21
642.20	54481.29
642.40	53708.88
642.60	54157.63
642.80	54525.69
642.99	54214.65
643.19	54676.83
643.39	54177.29
643.59	54563.87
643.79	54345.23
643.99	54600.16
644.19	54290.91
644.38	53813.90
644.58	54088.90
644.78	53878.13
644.98	53732.06
645.18	53956.19
645.38	54197.85
645.57	53747.87
645.77	53794.73
645.97	53606.16
646.17	54002.07
646.37	53908.44
646.56	53763.19
646.76	53844.46
646.96	53928.92
647.16	53840.93
647.36	53940.71
647.55	53713.31
647.75	53837.41
647.95	53365.89
648.15	53698.72
648.35	53479.67
648.55	53524.07
648.74	53397.92
648.94	53253.99
649.14	53571.34
649.34	53152.24
649.54	53038.46
649.73	53182.06
649.93	52809.50
650.13	53066.88
650.33	52678.26
650.52	52800.81
650.72	53036.16
650.92	52494.44
651.12	52392.94
651.32	52542.19
651.51	52669.41
651.71	52608.14
651.91	52208.13
652.11	52038.31
652.30	51963.27
652.50	52380.49
652.70	52443.65
652.90	52025.86
653.10	52112.94
653.29	51630.52
653.49	51994.90
653.69	51366.41
653.89	51321.69
654.08	51112.55
654.28	51509.69
654.48	51063.81
654.68	51210.20
654.87	50911.36
655.07	50748.75
655.27	51102.72
655.47	50622.43
655.66	50600.23
655.86	50228.32
656.06	50710.74
656.26	49772.69
656.45	50119.53
656.65	50029.58
656.85	49759.09
657.04	49281.50
657.24	49158.46
657.44	49010.02
657.64	49320.17
657.83	48369.09
658.03	48912.13
658.23	48783.60
658.43	48541.86
658.62	48630.66
658.82	48227.70
659.02	48092.37
659.21	48210.50
659.41	47880.03
659.61	48345.82
659.81	47953.84
660.00	47664.02
660.20	47741.59
660.40	47335.28
660.59	47318.56
660.79	46794.78
660.99	47068.63
661.19	46834.10
661.38	46732.68
661.58	46108.46
661.78	46474.96
661.97	46209.06
662.17	46733.99
662.37	46021.87
662.56	46083.23
662.76	45966.82
662.96	46007.54
663.15	45897.76
663.35	45642.59
663.55	45379.14
663.74	45060.88
663.94	45508.00
664.14	44892.87
664.33	45125.03
664.53	44816.93
664.73	45102.42
664.93	44326.97
665.12	44608.69
665.32	44231.62
665.52	44231.54
665.71	43943.35
665.91	43980.29
666.10	43680.72
666.30	43809.82
666.50	43265.88
666.69	43295.12
666.89	43458.06
667.09	43615.43
667.28	43181.58
667.48	42906.58
667.68	42955.90
667.87	42881.76
668.07	42488.47
668.27	42769.37
668.46	42737.18
668.66	42444.97
668.86	42848.59
669.05	42303.01
669.25	42452.26
669.44	41847.21
669.64	41711.06
669.84	41629.88
670.03	41953.38
670.23	41420.58
670.43	41407.31
670.62	41342.75
670.82	41136.73
671.01	41203.25
671.21	40737.05
671.41	40650.95
671.60	40759.00
671.80	40788.00
672.00	40513.00
672.19	40744.42
672.39	40481.13
672.58	40362.27
672.78	40041.48
672.98	40439.76
673.17	40146.33
673.37	39390.79
673.56	39652.53
673.76	39703.89
673.96	39845.28
674.15	39426.10
674.35	39574.29
674.54	39341.48
674.74	39278.32
674.94	39075.57
675.13	39267.34
675.33	38731.27
675.52	39161.09
675.72	38930.25
675.91	38692.93
676.11	38796.23
676.31	38370.91
676.50	38400.23
676.70	38307.67
676.89	38357.14
677.09	38362.96
677.28	38195.19
677.48	37656.41
677.68	37934.69
677.87	37621.84
678.07	37521.98
678.26	37559.91
678.46	37500.77
678.65	37365.60
678.85	37558.76
679.04	37123.94
679.24	37269.92
679.44	37041.61
679.63	37178.50
679.83	37002.04
680.02	37085.85
680.22	36729.42
680.41	36799.70
680.61	36704.19
680.80	36550.59
681.00	36603.59
681.19	36492.02
681.39	36323.51
681.59	36215.38
681.78	36011.81
681.98	36347.51
682.17	35903.92
682.37	36139.69
682.56	35839.37
682.76	36146.48
682.95	35933.09
683.15	35976.75
683.34	35847.48
683.54	35938.90
683.73	36028.60
683.93	35495.89
684.12	35791.45
684.32	35814.55
684.51	35251.44
684.71	35427.40
684.90	35338.52
685.10	35277.08
685.29	35213.76
685.49	35461.81
685.68	35365.31
685.88	35348.02
686.07	35071.71
686.27	35372.43
686.46	35253.57
686.66	35001.18
686.85	35128.97
687.05	34781.64
687.24	34644.91
687.44	34794.42
687.63	34726.67
687.83	34317.16
688.02	34703.65
688.22	34746.98
688.41	34508.27
688.61	34472.47
688.80	34749.11
689.00	34348.04
689.19	34084.67
689.39	34562.59
689.58	34433.73
689.77	34247.03
689.97	34376.47
690.16	34117.28
690.36	33762.16
690.55	33773.54
690.75	34205.75
690.94	33856.45
691.14	33986.78
691.33	33602.66
691.53	33876.27
691.72	33704.98
691.91	33757.98
692.11	33641.33
692.30	33791.48
692.50	33758.55
692.69	33479.46
692.89	33606.02
693.08	33554.25
693.28	33562.93
693.47	33535.90
693.66	33608.56
693.86	33444.31
694.05	33443.33
694.25	33496.25
694.44	33566.13
694.64	33416.87
694.83	33324.55
695.02	33389.10
695.22	33524.84
695.41	33341.67
695.61	33229.03
695.80	33353.06
695.99	33367.64
696.19	33319.63
696.38	33375.50
696.58	33091.73
696.77	33551.05
696.96	33381.40
697.16	33190.36
697.35	33140.72
697.55	33092.47
697.74	32921.83
697.93	33328.07
698.13	32945.59
698.32	33110.58
698.52	33030.21
698.71	32696.97
698.90	33201.75
699.10	32954.93
699.29	33092.80
699.49	33346.50
699.68	33038.90
699.87	32998.35
700.07	33315.29
700.26	33110.00
700.45	33032.75
700.65	32894.97
700.84	33219.86
701.04	33015.14
701.23	33237.88
701.42	33097.96
701.62	33078.22
701.81	33171.44
702.00	33116.64
702.20	32815.09
702.39	32902.26
702.58	32924.78
702.78	32699.18
702.97	32691.56
703.17	32670.75
703.36	32809.20
703.55	32646.75
703.75	32747.59
703.94	32981.23
704.13	32863.26
704.33	32885.71
704.52	33057.98
704.71	32992.29
704.91	32867.20
705.10	32714.17
705.29	32816.08
705.49	33007.03
705.68	33083.71
705.87	33067.49
706.07	32769.22
706.26	33172.83
706.45	32831.56
706.65	32759.80
706.84	33079.77
707.03	33347.40
707.23	32800.76
707.42	32766.76
707.61	33220.59
707.80	32785.60
708.00	32981.64
708.19	32923.64
708.38	33208.96
708.58	32590.72
708.77	33132.12
708.96	32602.76
709.16	32607.10
709.35	33226.00
709.54	32743.33
709.74	32766.27
709.93	32572.29
710.12	33096.24
710.31	33305.13
710.51	32961.32
710.70	33132.20
710.89	33329.54
711.09	32810.10
711.28	32857.53
711.47	33126.47
711.66	33004.16
711.86	32883.99
712.05	33082.31
712.24	33188.15
712.43	32997.94
712.63	32712.94
712.82	33154.48
713.01	33068.72
713.21	32807.15
713.40	32901.19
713.59	33120.24
713.78	32647.24
713.98	33063.31
714.17	33002.93
714.36	33008.50
714.55	32910.37
714.75	33164.07
714.94	33162.59
715.13	33494.28
715.32	33162.84
715.52	33329.54
715.71	33106.56
715.90	33189.95
716.09	33066.09
716.29	33404.75
716.48	33261.31
716.67	32918.48
716.86	33162.92
717.06	33156.53
717.25	33298.50
717.44	33434.65
717.63	33444.97
717.82	33081.49
718.02	33219.53
718.21	33457.17
718.40	33498.38
718.59	33405.81
718.79	33304.15
718.98	33356.25
719.17	33687.20
719.36	33713.83
719.55	33412.45
719.75	33362.23
719.94	33334.79
720.13	33464.55
720.32	33364.69
720.51	33164.97
720.71	33217.97
720.90	32996.71
721.09	33332.74
721.28	33133.92
721.47	33644.93
721.67	33500.10
721.86	33431.94
722.05	33407.70
722.24	33078.14
722.43	33463.24
722.63	33238.29
722.82	33371.90
723.01	33389.43
723.20	33210.76
723.39	33126.55
723.58	33426.54
723.78	32977.05
723.97	33498.95
724.16	33089.19
724.35	33281.13
724.54	33232.96
724.73	33565.96
724.93	33400.73
725.12	33681.71
725.31	33193.64
725.50	33506.90
725.69	33621.50
725.88	33539.75
726.08	33158.25
726.27	33592.26
726.46	33067.57
726.65	33752.16
726.84	33257.54
727.03	33352.89
727.23	33650.50
727.42	33316.03
727.61	33323.32
727.80	33162.27
727.99	33438.33
728.18	33475.28
728.37	33351.42
728.56	33204.29
728.76	33209.45
728.95	33388.94
729.14	33261.31
729.33	33345.03
729.52	33391.15
729.71	33460.86
729.90	33566.45
730.09	33253.52
730.29	33583.57
730.48	33129.01
730.67	33566.70
730.86	33223.30
731.05	33551.13
731.24	33308.74
731.43	33431.12
731.62	33063.72
731.81	33013.01
732.01	33546.38
732.20	33161.94
732.39	33375.26
732.58	33327.74
732.77	32800.51
732.96	33239.43
733.15	33351.74
733.34	33027.35
733.53	33174.72
733.72	33297.27
733.92	33220.84
734.11	33293.34
734.30	33261.47
734.49	33506.73
734.68	33176.27
734.87	33033.49
735.06	33083.87
735.25	33237.47
735.44	33047.74
735.63	33121.14
735.82	33236.73
736.01	33163.82
736.20	33063.96
736.40	33363.46
736.59	33200.36
736.78	33406.71
736.97	32879.07
737.16	33025.05
737.35	33017.43
737.54	33006.29
737.73	32847.13
737.92	33060.36
738.11	33113.20
738.30	33041.44
738.49	32935.52
738.68	32822.71
738.87	33091.65
739.06	32814.77
739.25	32805.18
739.44	32738.26
739.63	32694.76
739.82	32462.02
740.01	32704.83
740.20	32396.98
740.39	32516.66
740.59	32492.83
740.78	32688.86
740.97	32442.45
741.16	32311.29
741.35	32491.11
741.54	32369.87
741.73	32434.50
741.92	32255.51
742.11	32312.85
742.30	32342.42
742.49	32030.40
742.68	32235.36
742.87	32067.42
743.06	31767.03
743.25	31992.55
743.44	31847.88
743.63	32117.07
743.82	31798.32
744.01	31749.33
744.20	31643.74
744.39	31889.58
744.58	31713.78
744.77	31530.53
744.96	31170.49
745.15	31484.98
745.34	31198.10
745.53	31320.32
745.72	31018.04
745.91	31077.19
746.10	30954.31
746.29	31202.69
746.48	31170.08
746.67	31114.05
746.86	31221.86
747.04	31102.34
747.23	30900.00
747.42	31125.19
747.61	30842.25
747.80	31158.37
747.99	30619.51
748.18	30940.14
748.37	30750.01
748.56	30460.83
748.75	30607.96
748.94	30551.43
749.13	30588.63
749.32	30344.75
749.51	30386.12
749.70	30375.23
749.89	30182.64
750.08	30338.12
750.27	30064.35
750.46	30219.50
750.65	30445.76
750.84	30098.10
751.02	30180.34
751.21	30008.72
751.40	30004.95
751.59	30028.96
751.78	29869.79
751.97	29876.26
752.16	29647.95
752.35	29851.11
752.54	29439.71
752.73	29704.48
752.92	29447.74
753.11	29380.00
753.30	29432.92
753.49	29479.20
753.67	29253.19
753.86	29107.62
754.05	29225.09
754.24	28975.64
754.43	29022.75
754.62	28949.59
754.81	28676.97
755.00	28651.90
755.19	28602.91
755.38	28257.30
755.56	28437.36
755.75	28647.81
755.94	28355.85
756.13	28455.54
756.32	28340.04
756.51	28214.46
756.70	28343.97
756.89	28208.72
757.08	28052.58
757.26	28059.38
757.45	28051.03
757.64	27804.21
757.83	28039.97
758.02	27874.57
758.21	27894.48
758.40	27991.80
758.59	27927.90
758.77	27644.55
758.96	27550.09
759.15	27552.96
759.34	27238.48
759.53	27381.75
759.72	27260.84
759.91	26956.18
760.09	27079.96
760.28	27111.34
760.47	26798.82
760.66	27063.83
760.85	26722.06
761.04	26898.92
761.23	26742.38
761.41	26625.72
761.60	26715.59
761.79	26535.78
761.98	26452.96
762.17	26695.19
762.36	26361.45
762.54	26645.88
762.73	26479.99
762.92	26296.49
763.11	26472.21
763.30	26442.14
763.49	26245.87
763.67	26113.65
763.86	25993.15
764.05	26059.83
764.24	25943.34
764.43	26017.64
764.61	25694.55
764.80	25744.69
764.99	25961.03
765.18	25587.81
765.37	25706.76
765.55	25611.24
765.74	25437.08
765.93	25167.24
766.12	25404.56
766.31	25299.70
766.49	25326.82
766.68	25355.08
766.87	25244.16
767.06	25143.40
767.25	25190.34
767.43	25096.96
767.62	24943.44
767.81	25007.58
768.00	24783.94
768.19	24609.95
768.37	24690.07
768.56	24534.91
768.75	24621.58
768.94	24564.89
769.12	24341.91
769.31	24206.91
769.50	24083.70
769.69	24138.02
769.88	23871.45
770.06	24350.02
770.25	24020.13
770.44	23928.38
770.63	24080.67
770.81	23942.88
771.00	23799.36
771.19	23799.61
771.38	23755.86
771.56	23841.55
771.75	23501.42
771.94	23623.97
772.13	23494.22
772.31	23344.80
772.50	23507.08
772.69	23388.79
772.88	23526.57
773.06	23222.65
773.25	23353.07
773.44	23253.78
773.62	23163.51
773.81	23180.79
774.00	22881.30
774.19	22906.86
774.37	22812.16
774.56	22944.87
774.75	22547.64
774.94	22755.80
775.12	22556.25
775.31	22620.63
775.50	22701.24
775.68	22567.71
775.87	22528.15
776.06	22379.55
776.25	22458.19
776.43	22296.65
776.62	22420.92
776.81	22098.81
776.99	22255.28
777.18	22209.65
777.37	21870.18
777.55	21951.28
777.74	21925.06
777.93	21832.90
778.12	21796.20
778.30	21713.14
778.49	21705.19
778.68	21740.74
778.86	21676.44
779.05	21695.69
779.24	21678.32
779.42	21633.02
779.61	21494.01
779.80	21631.79
779.98	21558.64
780.17	21686.27
780.36	21347.62
780.54	21498.92
780.73	21057.13
780.92	21307.15
781.10	21189.68
781.29	21027.81
781.48	20970.63
781.66	20959.49
781.85	20990.37
782.04	20844.47
782.22	20939.33
782.41	20789.91
782.60	20890.84
782.78	20883.63
782.97	20898.78
783.16	20647.62
783.34	20537.36
783.53	20627.63
783.71	20429.23
783.90	20425.95
784.09	20381.55
784.27	20447.33
784.46	20379.17
784.65	20481.41
784.83	20341.74
785.02	20355.99
785.20	20564.80
785.39	20177.90
785.58	20436.76
785.76	20431.19
785.95	20323.30
786.14	20332.89
786.32	20279.64
786.51	20227.95
786.69	20240.65
786.88	20183.47
787.07	20155.37
787.25	20130.80
787.44	20039.21
787.62	19930.83
787.81	19996.37
788.00	20010.78
788.18	19950.82
788.37	19895.20
788.55	20260.55
788.74	20041.50
788.93	20200.43
789.11	20351.16
789.30	20259.00
789.48	20072.22
789.67	20230.33
789.86	20159.14
790.04	20208.95
790.23	20110.40
790.41	20065.83
790.60	20141.04
790.78	20009.47
790.97	19762.08
791.16	19920.51
791.34	20074.76
791.53	19696.13
791.71	20020.21
791.90	19754.13
792.08	19769.70
792.27	19752.74
792.46	19690.24
792.64	19689.91
792.83	19573.26
793.01	19657.39
793.20	19613.64
793.38	19521.32
793.57	19556.71
793.75	19546.22
793.94	19676.47
794.12	19822.29
794.31	19579.89
794.50	19729.39
794.68	19733.65
794.87	19590.05
795.05	19757.16
795.24	19593.49
795.42	19511.82
795.61	19751.68
795.79	19742.17
795.98	19483.56
796.16	19696.22
796.35	19722.02
796.53	19588.25
796.72	19715.39
796.90	19748.40
797.09	19699.25
797.27	19666.97
797.46	19586.28
797.64	19631.09
797.83	19535.74
798.01	19578.25
798.20	19634.94
798.38	19491.50
798.57	19658.37
798.75	19550.57
798.94	19352.98
799.12	19749.87
799.31	19508.54
799.49	19512.64
799.68	19472.00
799.86	19506.57
800.05	19448.25
800.23	19525.42
800.42	19439.32
800.60	19650.18
800.79	19392.30
800.97	19463.90
801.16	19625.68
801.34	19374.52
801.53	19340.93
801.71	19477.82
801.90	19323.16
802.08	19544.18
802.27	19370.92
802.45	19169.32
802.64	19284.00
802.82	19290.72
803.00	19037.67
803.19	19057.00
803.37	19264.26
803.56	19017.52
803.74	19097.88
803.93	19110.17
804.11	19169.15
804.30	19063.64
804.48	19207.90
804.67	19184.96
804.85	19116.64
805.03	19292.52
805.22	19082.40
805.40	19033.08
805.59	19169.72
805.77	19198.07
805.96	19089.28
806.14	19040.13
806.32	19125.00
806.51	19143.76
806.69	18937.65
806.88	18829.60
807.06	18820.75
807.25	18802.73
807.43	18854.99
807.61	18896.03
807.80	18844.67
807.98	19071.75
808.17	18912.17
808.35	18915.20
808.53	19001.96
808.72	18906.27
808.90	18842.54
809.09	18927.25
809.27	18960.75
809.45	18739.24
809.64	18893.33
809.82	18734.33
810.01	18823.62
810.19	18776.43
810.37	18652.90
810.56	18571.23
810.74	18643.48
810.93	18449.58
811.11	18537.97
811.29	18459.00
811.48	18590.97
811.66	18596.13
811.84	18548.86
812.03	18522.32
812.21	18560.09
812.40	18666.74
812.58	18664.37
812.76	18514.95
812.95	18618.74
813.13	18380.27
813.31	18458.83
813.50	18505.20
813.68	18414.84
813.86	18566.39
814.05	18542.96
814.23	18316.46
814.42	18536.57
814.60	18365.28
814.78	18452.28
814.97	18403.70
815.15	18447.94
815.33	18482.67
815.52	18320.15
815.70	18337.68
815.88	18379.04
816.07	18091.26
816.25	18187.11
816.43	18150.66
816.62	18000.01
816.80	18137.88
816.98	18071.77
817.17	18092.41
817.35	18165.73
817.53	18131.90
817.72	18143.86
817.90	17936.52
818.08	18013.36
818.26	18129.68
818.45	17950.86
818.63	18076.44
818.81	18116.82
819.00	17900.56
819.18	18077.58
819.36	18051.04
819.55	18055.88
819.73	17937.75
819.91	18026.79
820.09	18001.48
820.28	18110.60
820.46	17904.33
820.64	18101.75
820.83	17850.83
821.01	17870.17
821.19	17863.53
821.38	17951.02
821.56	17873.36
821.74	17923.00
821.92	17832.40
822.11	18006.81
822.29	17725.82
822.47	17810.20
822.65	17826.01
822.84	17928.16
823.02	17749.34
823.20	18047.85
823.39	17830.68
823.57	17915.30
823.75	17953.40
823.93	17800.29
824.12	17861.89
824.30	17797.01
824.48	17829.04
824.66	17964.62
824.85	17596.07
825.03	17804.63
825.21	17792.59
825.39	17772.68
825.58	17839.04
825.76	17730.66
825.94	17805.70
826.12	17771.04
826.31	17695.84
826.49	17790.70
826.67	17691.26
826.85	17675.28
827.03	17705.35
827.22	17772.11
827.40	17668.73
827.58	17689.86
827.76	17788.57
827.95	17725.99
828.13	17730.66
828.31	17753.84
828.49	17799.88
828.67	17853.04
828.86	17763.02
829.04	17869.76
829.22	17828.80
829.40	17788.33
829.58	17750.97
829.77	17770.80
829.95	17731.23
830.13	17696.42
830.31	17721.24
830.49	17671.43
830.68	17670.37
830.86	17580.66
831.04	17515.05
831.22	17519.55
831.40	17550.44
831.59	17692.07
831.77	17528.40
831.95	17665.04
832.13	17439.19
832.31	17540.61
832.50	17510.95
832.68	17427.56
832.86	17458.36
833.04	17559.37
833.22	17385.45
833.40	17610.48
833.59	17456.89
833.77	17709.36
833.95	17328.03
834.13	17857.96
834.31	17562.48
834.49	17622.03
834.67	17564.85
834.86	17595.66
835.04	17542.33
835.22	17546.26
835.40	17496.45
835.58	17489.74
835.76	17558.46
835.95	17661.44
836.13	17547.90
836.31	17481.38
836.49	17627.19
836.67	17618.10
836.85	17550.76
837.03	17524.47
837.21	17560.92
837.40	17432.06
837.58	17324.42
837.76	17510.30
837.94	17464.09
838.12	17607.94
838.30	17401.26
838.48	17381.11
838.66	17355.63
838.85	17294.77
839.03	17289.85
839.21	17386.68
839.39	17287.89
839.57	17378.90
839.75	17275.60
839.93	17323.52
840.11	17371.20
840.29	17387.99
840.47	17351.37
840.66	17418.79
840.84	17337.37
841.02	17288.46
841.20	17318.93
841.38	17336.87
841.56	17296.98
841.74	17488.01
841.92	17214.98
842.10	17246.76
842.28	17313.45
842.46	17202.20
842.65	17229.48
842.83	17306.32
843.01	17366.61
843.19	17138.14
843.37	17280.92
843.55	17249.71
843.73	17328.11
843.91	17344.41
844.09	17311.89
844.27	17494.08
844.45	17369.40
844.63	17383.57
844.81	17433.13
844.99	17445.74
845.17	17304.43
845.35	17425.10
845.54	17335.32
845.72	17329.26
845.90	17320.25
846.08	17319.51
846.26	17187.45
846.44	17362.02
846.62	17112.74
846.80	17161.08
846.98	17133.22
847.16	17159.27
847.34	17243.08
847.52	17210.56
847.70	17208.59
847.88	17265.44
848.06	17201.38
848.24	17249.80
848.42	17269.87
848.60	17148.79
848.78	17300.42
848.96	17277.81
849.14	17297.64
849.32	17404.79
849.50	17263.07
849.68	17493.18
849.86	17398.56
850.04	17269.87
850.22	17277.40
850.40	17173.77
850.58	17281.91
850.76	17551.75
850.94	17036.72
851.12	17271.59
851.30	17138.96
851.48	17268.64
851.66	17160.67
851.84	17155.83
852.02	17185.41
852.20	17302.30
852.38	17157.72
852.56	17270.44
852.74	17283.87
852.92	17193.84
853.10	17150.26
853.28	17254.55
853.46	16959.80
853.64	17174.84
853.82	17041.56
854.00	17084.73
854.18	16990.11
854.36	16908.85
854.54	17064.41
854.72	16900.41
854.90	16905.33
855.07	16994.21
855.25	16944.81
855.43	16968.24
855.61	16927.20
855.79	16983.23
855.97	17040.08
856.15	17052.45
856.33	16934.82
856.51	17133.63
856.69	16906.31
856.87	17082.93
857.05	16909.26
857.23	16912.29
857.41	16783.76
857.59	16743.86
857.77	16698.48
857.94	16684.97
858.12	16780.48
858.30	16692.42
858.48	16667.03
858.66	16636.63
858.84	16787.86
859.02	16650.23
859.20	16662.77
859.38	16931.29
859.56	16904.26
859.74	16862.73
859.92	16930.56
860.09	16863.55
860.27	16968.40
860.45	16859.04
860.63	16854.46
860.81	16950.79
860.99	16794.57
861.17	16655.80
861.35	16412.75
861.53	16276.03
861.70	16276.76
861.88	16595.26
862.06	16648.10
862.24	16460.26
862.42	16403.00
862.60	16631.64
862.78	16604.68
862.96	16679.89
863.14	16553.40
863.31	16553.08
863.49	16541.28
863.67	16455.43
863.85	16438.55
864.03	16549.96
864.21	16506.46
864.39	16501.30
864.56	16400.87
864.74	16449.37
864.92	16410.70
865.10	16326.00
865.28	16353.44
865.46	16499.91
865.64	16179.85
865.81	16400.13
865.99	16214.51
866.17	16447.48
866.35	16303.88
866.53	16281.27
866.71	16342.87
866.88	16397.18
867.06	16211.15
867.24	16350.16
867.42	16214.34
867.60	16358.03
867.78	16230.73
867.95	16447.97
868.13	16224.42
868.31	16390.30
868.49	16367.04
868.67	16288.97
868.84	16276.11
869.02	16323.62
869.20	16023.55
869.38	16235.72
869.56	16129.80
869.73	16006.92
869.91	16194.68
870.09	16120.55
870.27	15991.93
870.45	15985.22
870.62	15902.15
870.80	16011.76
870.98	15964.82
871.16	15996.68
871.34	15973.34
871.51	16030.60
871.69	15855.87
871.87	15940.73
872.05	15879.70
872.23	15970.55
872.40	15828.01
872.58	15950.73
872.76	15822.44
872.94	15826.05
873.11	15899.28
873.29	15822.69
873.47	15898.79
873.65	15786.32
873.83	15762.89
874.00	15719.47
874.18	15760.92
874.36	15739.62
874.54	15750.19
874.71	15671.38
874.89	15563.17
875.07	15665.49
875.25	15607.41
875.42	15600.03
875.60	15561.37
875.78	15670.24
875.96	15441.36
876.13	15529.67
876.31	15250.81
876.49	15283.50
876.66	15126.95
876.84	15368.61
877.02	15229.68
877.20	15311.19
877.37	15273.75
877.55	15313.81
877.73	15271.62
877.91	15240.41
878.08	15305.86
878.26	15371.07
878.44	15372.30
878.61	15410.47
878.79	15324.70
878.97	15302.26
879.15	15447.66
879.32	15387.78
879.50	15335.76
879.68	15434.72
879.85	15219.27
880.03	15378.03
880.21	15157.10
880.38	15335.76
880.56	15178.23
880.74	15338.79
880.92	15090.66
881.09	15214.20
881.27	15169.55
881.45	15177.50
881.62	15121.79
881.80	15103.28
881.98	15109.18
882.15	15228.86
882.33	15112.53
882.51	15139.81
882.68	14999.16
882.86	15272.36
883.04	15077.47
883.21	15135.14
883.39	15235.17
883.57	15105.65
883.74	15111.80
883.92	15134.16
884.10	15059.70
884.27	15074.69
884.45	14941.08
884.63	15094.35
884.80	15045.03
884.98	15105.41
885.16	15037.01
885.33	15052.08
885.51	15091.89
885.69	15029.71
885.86	14974.09
886.04	15042.17
886.21	14855.23
886.39	14958.86
886.57	14782.89
886.74	15030.53
886.92	14994.16
887.10	15037.17
887.27	15014.72
887.45	15027.50
887.62	15071.17
887.80	14981.22
887.98	15110.65
888.15	15025.95
888.33	14953.37
888.51	15069.04
888.68	14966.23
888.86	14994.90
889.03	14888.08
889.21	14996.70
889.39	15017.43
889.56	15011.37
889.74	14985.72
889.91	14965.49
890.09	14918.06
890.27	14935.43
890.44	14896.52
890.62	14939.69
890.79	14951.56
890.97	14974.09
891.14	14938.46
891.32	14995.64
891.50	14935.34
891.67	14996.13
891.85	14942.88
892.02	14940.67
892.20	15085.99
892.38	14956.23
892.55	14934.03
892.73	15019.39
892.90	14834.91
893.08	14905.77
893.25	14843.10
893.43	14977.94
893.60	14837.29
893.78	14936.08
893.96	14851.46
894.13	14947.39
894.31	14997.68
894.48	14931.66
894.66	14953.04
894.83	14959.26
895.01	15006.29
895.18	15053.23
895.36	14963.69
895.53	15106.96
895.71	14984.74
895.89	15017.75
896.06	14930.92
896.24	15038.56
896.41	14963.36
896.59	15016.12
896.76	14720.06
896.94	14876.69
897.11	14883.33
897.29	14872.02
897.46	14701.63
897.64	14764.30
897.81	14733.91
897.99	14552.21
898.16	14791.90
898.34	14711.54
898.51	14601.12
898.69	14566.38
898.86	14586.04
899.04	14635.85
899.21	14546.15
899.39	14685.66
899.56	14609.72
899.74	14781.42
899.91	14611.27
900.09	14548.20
900.26	14598.25
900.44	14484.05
900.61	14500.44
900.79	14602.18
900.96	14490.85
901.14	14431.22
901.31	14365.68
901.49	14352.57
901.66	14389.52
901.84	14392.96
902.01	14262.30
902.19	14264.10
902.36	14223.31
902.54	14254.44
902.71	14237.64
902.88	14227.16
903.06	14047.02
903.23	14255.01
903.41	14102.23
903.58	14046.94
903.76	14003.52
903.93	14100.26
904.11	14110.01
904.28	14000.00
904.45	14003.27
904.63	13972.55
904.80	13853.03
904.98	13932.17
905.15	13765.54
905.33	13868.84
905.50	13799.46
905.68	13753.42
905.85	13701.07
906.02	13665.11
906.20	13695.75
906.37	13526.26
906.55	13474.41
906.72	13568.45
906.90	13463.18
907.07	13440.57
907.24	13507.66
907.42	13360.87
907.59	13359.31
907.77	13279.19
907.94	13279.36
908.11	13305.65
908.29	13280.18
908.46	13245.44
908.64	13217.92
908.81	13288.37
908.98	13149.52
909.16	13310.57
909.33	13163.52
909.51	13145.17
909.68	13080.29
909.85	13147.80
910.03	13069.48
910.20	12986.42
910.37	12968.88
910.55	13005.91
910.72	12913.67
910.90	12823.97
911.07	12847.15
911.24	12771.71
911.42	12872.06
911.59	12700.44
911.76	12732.39
911.94	12640.15
912.11	12536.03
912.29	12540.45
912.46	12410.44
912.63	12404.96
912.81	12270.53
912.98	12337.54
913.15	12220.80
913.33	12238.58
913.50	12218.43
913.67	12151.01
913.85	12139.21
914.02	12171.49
914.19	12094.16
914.37	12092.68
914.54	12082.85
914.71	12040.17
914.89	12015.51
915.06	12042.79
915.23	11990.04
915.41	11923.52
915.58	11869.70
915.75	11816.53
915.93	11816.21
916.10	11718.72
916.27	11712.58
916.45	11673.75
916.62	11562.91
916.79	11594.29
916.97	11480.09
917.14	11497.95
917.31	11411.94
917.49	11438.64
917.66	11363.69
917.83	11361.88
918.00	11338.87
918.18	11325.59
918.35	11268.42
918.52	11343.70
918.70	11239.25
918.87	11249.82
919.04	11278.08
919.21	11256.87
919.39	11133.50
919.56	11197.31
919.73	11108.67
919.91	11125.80
920.08	11073.86
920.25	10940.33
920.42	11043.96
920.60	10861.77
920.77	10809.34
920.94	10860.21
921.11	10657.63
921.29	10735.62
921.46	10614.95
921.63	10758.80
921.81	10643.21
921.98	10689.66
922.15	10615.61
922.32	10648.54
922.50	10536.88
922.67	10535.65
922.84	10469.79
923.01	10451.44
923.19	10431.21
923.36	10425.47
923.53	10251.72
923.70	10347.32
923.87	10233.04
924.05	10287.27
924.22	10157.02
924.39	10266.80
924.56	10090.01
924.74	10091.49
924.91	10118.28
925.08	10059.46
925.25	9999.99
925.43	9988.60
925.60	9950.34
925.77	10024.56
925.94	9929.04
926.11	9927.32
926.29	9848.68
926.46	9876.45
926.63	9845.81
926.80	9863.26
926.97	9732.19
927.15	9835.57
927.32	9728.18
927.49	9707.86
927.66	9687.96
927.83	9714.91
928.01	9589.82
928.18	9578.60
928.35	9508.64
928.52	9552.87
928.69	9436.14
928.87	9437.61
929.04	9457.11
929.21	9428.44
929.38	9345.62
929.55	9397.56
929.72	9305.40
929.90	9299.83
930.07	9271.15
930.24	9215.53
930.41	9162.86
930.58	9194.56
930.75	9182.35
930.93	9122.88
931.10	9104.53
931.27	9016.88
931.44	8996.64
931.61	8975.35
931.78	8978.05
931.95	8952.98
932.13	8817.24
932.30	8923.33
932.47	8781.12
932.64	8851.40
932.81	8829.28
932.98	8792.50
933.15	8791.27
933.33	8728.52
933.50	8758.92
933.67	8670.53
933.84	8669.38
934.01	8676.59
934.18	8663.07
934.35	8664.96
934.52	8580.42
934.70	8612.45
934.87	8556.99
935.04	8507.26
935.21	8497.68
935.38	8473.43
935.55	8441.89
935.72	8476.38
935.89	8362.92
936.06	8452.70
936.24	8361.45
936.41	8451.31
936.58	8352.11
936.75	8296.81
936.92	8310.82
937.09	8341.13
937.26	8260.69
937.43	8248.56
937.60	8231.03
937.77	8203.10
937.94	8185.57
938.12	8218.25
938.29	8142.23
938.46	8140.10
938.63	8062.12
938.80	8102.50
938.97	8043.03
939.14	8023.29
939.31	7985.77
939.48	7995.43
939.65	7919.17
939.82	7928.92
939.99	7911.30
940.16	7881.81
940.33	7837.49
940.50	7833.48
940.67	7792.52
940.85	7844.21
941.02	7777.78
941.19	7812.92
941.36	7779.50
941.53	7834.63
941.70	7782.04
941.87	7735.42
942.04	7730.59
942.21	7737.31
942.38	7714.29
942.55	7702.08
942.72	7638.51
942.89	7648.59
943.06	7591.98
943.23	7575.60
943.40	7525.96
943.57	7583.71
943.74	7526.45
943.91	7513.75
944.08	7535.05
944.25	7517.85
944.42	7442.32
944.59	7414.63
944.76	7412.66
944.93	7375.88
945.10	7354.50
945.27	7370.23
945.44	7277.74
945.61	7314.20
945.78	7256.36
945.95	7262.92
946.12	7185.91
946.29	7243.09
946.46	7207.38
946.63	7189.03
946.80	7161.99
946.97	7161.01
947.14	7091.79
947.31	7186.49
947.48	7119.07
947.65	7093.10
947.82	7086.79
947.99	7134.71
948.16	7012.08
948.33	7097.93
948.50	6995.70
948.67	7007.90
948.84	6979.97
949.01	6987.18
949.18	6962.93
949.35	7004.87
949.52	6881.67
949.68	6956.79
949.85	6914.93
950.02	6927.21
950.19	6876.92
950.36	6859.06
950.53	6829.89
950.70	6812.85
950.87	6776.89
951.04	6829.65
951.21	6736.51
951.38	6728.81
951.55	6723.81
951.72	6692.02
951.89	6658.60
952.06	6726.02
952.23	6675.31
952.39	6678.75
952.56	6623.62
952.73	6693.91
952.90	6612.56
953.07	6675.89
953.24	6589.71
953.41	6608.80
953.58	6542.36
953.75	6595.93
953.92	6545.72
954.09	6524.50
954.25	6493.70
954.42	6519.26
954.59	6498.20
954.76	6434.80
954.93	6440.78
955.10	6461.67
955.27	6420.63
955.44	6403.34
955.61	6393.84
955.77	6404.16
955.94	6392.78
956.11	6364.10
956.28	6361.15
956.45	6352.55
956.62	6364.27
956.79	6352.47
956.96	6327.24
957.12	6315.77
957.29	6271.37
957.46	6293.00
957.63	6242.54
957.80	6233.20
957.97	6173.56
958.14	6256.05
958.30	6164.47
958.47	6150.54
958.64	6168.48
958.81	6182.24
958.98	6137.27
959.15	6152.34
959.32	6156.19
959.48	6160.21
959.65	6109.09
959.82	6127.44
959.99	6092.87
960.16	6117.61
960.33	6099.67
960.49	6087.87
960.66	6057.48
960.83	6052.81
961.00	6023.98
961.17	6015.95
961.33	5961.72
961.50	5974.50
961.67	5963.03
961.84	5963.60
962.01	5910.52
962.18	5961.96
962.34	5912.16
962.51	5916.91
962.68	5865.22
962.85	5912.49
963.02	5848.18
963.18	5860.80
963.35	5841.30
963.52	5868.91
963.69	5839.99
963.86	5847.69
964.02	5812.05
964.19	5839.58
964.36	5795.26
964.53	5808.69
964.69	5722.84
964.86	5802.06
965.03	5715.64
965.20	5763.31
965.37	5710.88
965.53	5709.82
965.70	5695.89
965.87	5713.42
966.04	5656.16
966.20	5659.60
966.37	5653.13
966.54	5640.43
966.71	5650.02
966.87	5613.89
967.04	5618.07
967.21	5604.14
967.38	5561.30
967.54	5581.29
967.71	5556.88
967.88	5556.30
968.05	5520.18
968.21	5515.18
968.38	5479.46
968.55	5500.93
968.72	5482.49
968.88	5462.83
969.05	5492.24
969.22	5453.58
969.39	5439.16
969.55	5470.12
969.72	5426.38
969.89	5427.69
970.05	5436.13
970.22	5433.83
970.39	5416.88
970.56	5447.51
970.72	5399.02
970.89	5453.99
971.06	5403.36
971.22	5412.95
971.39	5388.86
971.56	5423.43
971.73	5357.65
971.89	5418.52
972.06	5356.34
972.23	5369.20
972.39	5359.53
972.56	5353.80
972.73	5324.23
972.89	5337.58
973.06	5326.60
973.23	5311.61
973.39	5288.51
973.56	5312.76
973.73	5265.49
973.89	5265.16
974.06	5233.46
974.23	5252.71
974.39	5255.50
974.56	5221.91
974.73	5204.22
974.89	5208.89
975.06	5194.06
975.23	5226.99
975.39	5148.51
975.56	5174.97
975.73	5156.54
975.89	5156.38
976.06	5163.50
976.23	5133.60
976.39	5131.14
976.56	5133.19
976.73	5122.87
976.89	5115.01
977.06	5094.94
977.23	5097.72
977.39	5098.21
977.56	5092.32
977.72	5042.26
977.89	5091.09
978.06	5053.57
978.22	5064.30
978.39	5056.68
978.56	5061.02
978.72	5025.39
978.89	5026.70
979.05	5000.07
979.22	5005.48
979.39	4962.97
979.55	4994.26
979.72	4968.70
979.88	4977.71
980.05	4924.63
980.22	4992.95
980.38	4930.77
980.55	4929.30
980.71	4898.50
980.88	4936.34
981.05	4935.69
981.21	4891.53
981.38	4881.78
981.54	4905.05
981.71	4841.15
981.88	4872.45
982.04	4867.61
982.21	4861.47
982.37	4838.86
982.54	4866.63
982.70	4822.07
982.87	4840.99
983.04	4792.74
983.20	4848.20
983.37	4802.81
983.53	4848.93
983.70	4814.20
983.86	4822.88
984.03	4781.02
984.20	4799.21
984.36	4756.61
984.53	4785.86
984.69	4755.55
984.86	4713.52
985.02	4724.75
985.19	4731.46
985.35	4718.27
985.52	4730.15
985.68	4677.15
985.85	4712.79
986.02	4702.63
986.18	4713.60
986.35	4686.00
986.51	4716.23
986.68	4684.77
986.84	4700.91
987.01	4682.31
987.17	4692.31
987.34	4689.28
987.50	4661.59
987.67	4630.79
987.83	4677.81
988.00	4631.44
988.16	4652.41
988.33	4638.32
988.49	4628.90
988.66	4604.33
988.82	4629.06
988.99	4619.73
989.15	4625.13
989.32	4587.20
989.48	4586.39
989.65	4560.42
989.81	4561.48
989.98	4532.32
990.14	4536.01
990.31	4545.84
990.47	4538.79
990.64	4548.95
990.80	4528.80
990.97	4487.51
991.13	4516.92
991.30	4477.92
991.46	4479.97
991.63	4482.76
991.79	4482.76
991.95	4427.38
992.12	4486.12
992.28	4454.17
992.45	4450.40
992.61	4472.76
992.78	4468.83
992.94	4450.56
993.11	4495.29
993.27	4434.10
993.44	4444.42
993.60	4444.09
993.76	4449.01
993.93	4425.33
994.09	4460.72
994.26	4412.31
994.42	4396.74
994.59	4377.57
994.75	4430.08
994.91	4389.29
995.08	4384.95
995.24	4374.71
995.41	4391.58
995.57	4358.41
995.74	4347.35
995.90	4364.55
996.06	4344.23
996.23	4315.40
996.39	4339.97
996.56	4328.26
996.72	4315.07
996.88	4320.07
997.05	4310.32
997.21	4313.10
997.38	4338.42
997.54	4278.86
997.70	4314.25
997.87	4294.67
998.03	4291.31
998.20	4276.73
998.36	4277.22
998.52	4243.31
998.69	4311.38
998.85	4250.44
999.02	4256.50
999.18	4228.81
999.34	4267.15
999.51	4256.33
999.67	4243.15
999.83	4239.95
1000.00	4248.96
1000.16	4214.15
1000.33	4231.92
1000.49	4228.89
1000.65	4233.15
1000.82	4240.11
1000.98	4232.25
1001.14	4197.35
1001.31	4214.39
1001.47	4243.23
1001.63	4216.03
1001.80	4186.05
1001.96	4205.95
1002.12	4194.08
1002.29	4202.68
1002.45	4176.79
1002.61	4179.25
1002.78	4169.50
1002.94	4179.17
1003.10	4140.67
1003.27	4158.61
1003.43	4132.31
1003.59	4164.59
1003.76	4132.96
1003.92	4131.16
1004.08	4125.35
1004.25	4148.69
1004.41	4114.45
1004.57	4119.78
1004.74	4089.96
1004.90	4127.23
1005.06	4106.42
1005.23	4096.43
1005.39	4108.72
1005.55	4103.06
1005.71	4084.31
1005.88	4082.75
1006.04	4104.62
1006.20	4065.38
1006.37	4056.70
1006.53	4046.38
1006.69	4047.52
1006.85	4081.77
1007.02	4030.24
1007.18	4078.08
1007.34	4032.94
1007.51	4061.86
1007.67	4034.09
1007.83	4029.58
1007.99	4021.23
1008.16	4038.10
1008.32	3990.02
1008.48	4044.00
1008.64	3992.64
1008.81	4019.83
1008.97	4009.60
1009.13	3998.54
1009.29	3957.66
1009.46	4004.60
1009.62	3986.41
1009.78	3984.12
1009.95	3998.78
1010.11	3991.00
1010.27	3958.81
1010.43	3966.51
1010.59	3986.74
1010.76	3973.63
1010.92	3958.15
1011.08	3982.40
1011.24	3944.14
1011.41	3982.64
1011.57	3950.45
1011.73	3950.20
1011.89	3917.76
1012.06	3943.90
1012.22	3915.47
1012.38	3932.26
1012.54	3912.77
1012.70	3920.30
1012.87	3906.62
1013.03	3913.83
1013.19	3910.80
1013.35	3925.63
1013.51	3883.52
1013.68	3912.93
1013.84	3885.98
1014.00	3895.56
1014.16	3887.86
1014.32	3872.87
1014.49	3861.49
1014.65	3908.75
1014.81	3853.46
1014.97	3886.31
1015.13	3857.55
1015.30	3878.69
1015.46	3862.14
1015.62	3851.16
1015.78	3854.77
1015.94	3869.10
1016.10	3843.46
1016.27	3831.75
1016.43	3812.09
1016.59	3841.58
1016.75	3822.49
1016.91	3830.19
1017.07	3820.53
1017.24	3845.59
1017.40	3791.36
1017.56	3817.66
1017.72	3785.63
1017.88	3829.70
1018.04	3783.01
1018.21	3822.25
1018.37	3793.25
1018.53	3797.34
1018.69	3790.95
1018.85	3795.30
1019.01	3764.25
1019.17	3790.38
1019.34	3771.05
1019.50	3759.66
1019.66	3761.22
1019.82	3766.71
1019.98	3747.95
1020.14	3772.28
1020.30	3754.09
1020.46	3762.61
1020.63	3748.85
1020.79	3729.27
1020.95	3735.49
1021.11	3740.66
1021.27	3722.72
1021.43	3718.95
1021.59	3749.01
1021.75	3711.33
1021.91	3682.49
1022.07	3712.64
1022.24	3697.16
1022.40	3717.55
1022.56	3682.41
1022.72	3700.68
1022.88	3697.98
1023.04	3703.87
1023.20	3684.87
1023.36	3702.65
1023.52	3704.28
1023.68	3695.76
1023.84	3687.16
1024.01	3694.13
1024.17	3656.69
1024.33	3667.91
1024.49	3676.60
1024.65	3667.67
1024.81	3652.10
1024.97	3678.64
1025.13	3657.02
1025.29	3671.35
1025.45	3620.07
1025.61	3678.97
1025.77	3655.30
1025.93	3656.85
1026.09	3660.70
1026.25	3659.56
1026.41	3645.30
1026.57	3676.35
1026.73	3657.59
1026.90	3640.55
1027.06	3634.82
1027.22	3647.76
1027.38	3640.88
1027.54	3669.30
1027.70	3627.12
1027.86	3629.41
1028.02	3635.55
1028.18	3632.44
1028.34	3616.14
1028.50	3625.15
1028.66	3602.79
1028.82	3631.54
1028.98	3617.45
1029.14	3586.24
1029.30	3606.06
1029.46	3616.96
1029.62	3603.85
1029.78	3593.61
1029.94	3594.35
1030.10	3599.43
1030.26	3564.94
1030.42	3591.48
1030.58	3562.40
1030.74	3575.26
1030.90	3551.18
1031.06	3576.65
1031.22	3560.68
1031.38	3558.88
1031.54	3566.09
1031.70	3568.30
1031.86	3553.31
1032.02	3554.54
1032.18	3542.82
1032.34	3549.70
1032.50	3535.78
1032.66	3566.58
1032.82	3539.79
1032.98	3554.95
1033.14	3539.30
1033.30	3567.40
1033.45	3538.23
1033.61	3550.85
1033.77	3546.75
1033.93	3544.05
1034.09	3524.47
1034.25	3541.51
1034.41	3520.70
1034.57	3538.89
1034.73	3524.47
1034.89	3524.96
1035.05	3526.68
1035.21	3540.94
1035.37	3527.26
1035.53	3520.13
1035.69	3503.58
1035.85	3533.65
1036.01	3504.73
1036.16	3525.29
1036.32	3500.47
1036.48	3507.27
1036.64	3487.69
1036.80	3516.03
1036.96	3483.02
1037.12	3490.48
1037.28	3486.79
1037.44	3497.19
1037.60	3493.34
1037.76	3460.90
1037.91	3477.53
1038.07	3482.20
1038.23	3482.86
1038.39	3494.49
1038.55	3473.11
1038.71	3491.46
1038.87	3459.76
1039.03	3478.11
1039.19	3460.08
1039.35	3472.86
1039.50	3469.26
1039.66	3477.37
1039.82	3450.17
1039.98	3457.87
1040.14	3445.42
1040.30	3472.37
1040.46	3454.68
1040.62	3457.79
1040.77	3437.06
1040.93	3472.78
1041.09	3446.57
1041.25	3436.16
1041.41	3458.12
1041.57	3448.62
1041.73	3448.62
1041.88	3448.62

