SpectraSuite Data File
++++++++++++++++++++++++++++++++++++
Date: Tue Sep 20 11:47:29 EDT 2022
User: Laboratoire
Dark Spectrum Present: No
Reference Spectrum Present: No
Number of Sampled Component Spectra: 1
Spectrometers: FLMT00174
Integration Time (usec): 15000 (FLMT00174)
Spectra Averaged: 25 (FLMT00174)
Boxcar Smoothing: 0 (FLMT00174)
Correct for Electrical Dark: No (FLMT00174)
Strobe/Lamp Enabled: No (FLMT00174)
Correct for Detector Non-linearity: No (FLMT00174)
Correct for Stray Light: No (FLMT00174)
Number of Pixels in Processed Spectrum: 3648
>>>>>Begin Processed Spectral Data<<<<<
345.74	3132.49
345.96	3132.49
346.18	3132.49
346.39	3165.59
346.61	3201.14
346.83	3217.03
347.05	3188.20
347.27	3195.08
347.49	3199.66
347.71	3217.11
347.93	3212.85
348.15	3218.26
348.36	3209.74
348.58	3217.77
348.80	3210.97
349.02	3207.20
349.24	3210.64
349.46	3297.07
349.68	3339.01
349.90	3346.05
350.11	3326.39
350.33	3335.16
350.55	3320.74
350.77	3332.86
350.99	3304.36
351.21	3324.02
351.43	3312.06
351.65	3358.83
351.86	3341.79
352.08	3332.45
352.30	3310.50
352.52	3332.54
352.74	3313.20
352.96	3335.49
353.18	3326.39
353.39	3357.85
353.61	3333.36
353.83	3361.54
354.05	3343.19
354.27	3343.19
354.49	3333.52
354.70	3346.30
354.92	3330.49
355.14	3339.42
355.36	3333.52
355.58	3334.34
355.80	3333.93
356.02	3325.08
356.23	3350.97
356.45	3336.80
356.67	3351.71
356.89	3357.93
357.11	3319.84
357.33	3365.63
357.54	3311.73
357.76	3344.01
357.98	3336.63
358.20	3357.93
358.42	3333.93
358.63	3346.95
358.85	3345.64
359.07	3344.41
359.29	3329.01
359.51	3332.29
359.73	3323.69
359.94	3337.21
360.16	3331.31
360.38	3343.68
360.60	3331.23
360.82	3351.87
361.03	3367.60
361.25	3340.40
361.47	3336.80
361.69	3348.92
361.91	3331.23
362.12	3350.97
362.34	3344.41
362.56	3352.36
362.78	3347.20
363.00	3347.53
363.21	3339.75
363.43	3346.05
363.65	3345.40
363.87	3356.54
364.09	3357.77
364.30	3323.53
364.52	3347.28
364.74	3356.54
364.96	3345.23
365.17	3327.54
365.39	3327.79
365.61	3344.66
365.83	3335.24
366.05	3349.99
366.26	3343.76
366.48	3364.08
366.70	3343.76
366.92	3343.02
367.13	3349.41
367.35	3360.47
367.57	3357.69
367.79	3363.75
368.01	3346.71
368.22	3388.16
368.44	3349.00
368.66	3370.38
368.88	3365.96
369.09	3356.62
369.31	3360.55
369.53	3335.16
369.75	3353.34
369.96	3369.73
370.18	3347.28
370.40	3361.37
370.62	3358.67
370.83	3362.36
371.05	3379.39
371.27	3374.56
371.49	3364.24
371.70	3361.70
371.92	3377.92
372.14	3359.98
372.36	3352.69
372.57	3392.99
372.79	3359.49
373.01	3369.81
373.22	3352.93
373.44	3373.00
373.66	3353.67
373.88	3380.38
374.09	3370.47
374.31	3361.62
374.53	3342.29
374.75	3395.37
374.96	3360.96
375.18	3392.91
375.40	3385.46
375.61	3378.00
375.83	3361.13
376.05	3392.26
376.27	3357.44
376.48	3372.43
376.70	3378.25
376.92	3377.02
377.13	3360.63
377.35	3376.36
377.57	3370.14
377.79	3367.60
378.00	3378.74
378.22	3385.95
378.44	3359.57
378.65	3397.91
378.87	3373.99
379.09	3391.52
379.30	3391.68
379.52	3395.04
379.74	3388.65
379.96	3389.96
380.17	3361.54
380.39	3397.33
380.61	3398.65
380.82	3386.60
381.04	3379.07
381.26	3405.03
381.47	3411.51
381.69	3423.47
381.91	3404.87
382.12	3426.74
382.34	3424.86
382.56	3396.11
382.77	3412.33
382.99	3435.59
383.21	3422.07
383.42	3428.30
383.64	3407.98
383.86	3407.33
384.07	3425.84
384.29	3416.59
384.51	3403.97
384.72	3425.76
384.94	3428.38
385.16	3428.96
385.37	3428.14
385.59	3421.25
385.81	3443.29
386.02	3451.24
386.24	3446.81
386.46	3436.49
386.67	3460.25
386.89	3472.86
387.11	3466.23
387.32	3453.28
387.54	3449.60
387.76	3481.14
387.97	3472.29
388.19	3464.43
388.40	3462.95
388.62	3459.76
388.84	3483.19
389.05	3490.48
389.27	3481.63
389.49	3482.12
389.70	3499.73
389.92	3505.88
390.14	3489.66
390.35	3519.64
390.57	3498.83
390.78	3502.85
391.00	3493.18
391.22	3502.76
391.43	3494.65
391.65	3515.46
391.86	3527.01
392.08	3520.46
392.30	3527.75
392.51	3535.45
392.73	3551.01
392.95	3550.11
393.16	3537.91
393.38	3549.13
393.59	3558.47
393.81	3560.52
394.03	3555.19
394.24	3565.19
394.46	3575.02
394.67	3585.09
394.89	3561.99
395.11	3591.56
395.32	3602.79
395.54	3594.35
395.75	3580.59
395.97	3592.63
396.19	3588.37
396.40	3625.89
396.62	3619.99
396.83	3620.89
397.05	3634.41
397.26	3628.75
397.48	3633.51
397.70	3627.61
397.91	3653.08
398.13	3633.18
398.34	3640.80
398.56	3658.00
398.78	3673.89
398.99	3701.25
399.21	3661.85
399.42	3697.08
399.64	3669.06
399.85	3704.53
400.07	3703.38
400.29	3723.45
400.50	3706.33
400.72	3725.34
400.93	3716.90
401.15	3728.70
401.36	3726.16
401.58	3769.49
401.79	3742.70
402.01	3772.77
402.23	3751.88
402.44	3789.15
402.66	3784.89
402.87	3791.20
403.09	3774.90
403.30	3796.44
403.52	3782.27
403.73	3790.05
403.95	3792.43
404.16	3831.59
404.38	3823.72
404.60	3817.82
404.81	3838.79
405.03	3859.85
405.24	3853.62
405.46	3861.32
405.67	3864.11
405.89	3874.35
406.10	3875.58
406.32	3889.17
406.53	3897.45
406.75	3909.90
406.96	3904.17
407.18	3922.19
407.39	3915.55
407.61	3937.02
407.82	3929.31
408.04	3966.10
408.25	3952.83
408.47	3960.85
408.68	3978.88
408.90	3972.90
409.12	4000.67
409.33	4019.43
409.55	3998.13
409.76	3998.54
409.98	4034.09
410.19	4015.90
410.41	4042.03
410.62	4067.51
410.84	4029.91
411.05	4057.11
411.27	4094.63
411.48	4082.26
411.70	4101.43
411.91	4097.58
412.12	4100.93
412.34	4108.47
412.55	4126.00
412.77	4122.89
412.98	4139.60
413.20	4150.90
413.41	4161.47
413.63	4165.00
413.84	4185.07
414.06	4193.83
414.27	4216.52
414.49	4224.88
414.70	4225.61
414.92	4230.69
415.13	4231.51
415.35	4273.05
415.56	4281.65
415.78	4266.33
415.99	4290.33
416.21	4297.21
416.42	4309.17
416.63	4345.95
416.85	4317.77
417.06	4360.04
417.28	4320.15
417.49	4384.29
417.71	4348.90
417.92	4363.65
418.14	4388.31
418.35	4376.59
418.57	4426.97
418.78	4437.78
418.99	4401.90
419.21	4479.15
419.42	4475.71
419.64	4485.30
419.85	4476.45
420.07	4539.36
420.28	4513.89
420.50	4509.87
420.71	4517.41
420.92	4544.20
421.14	4577.37
421.35	4559.35
421.57	4557.22
421.78	4610.14
422.00	4617.35
422.21	4633.00
422.42	4632.18
422.64	4615.88
422.85	4695.66
423.07	4713.60
423.28	4691.08
423.50	4706.56
423.71	4750.06
423.92	4764.64
424.14	4731.22
424.35	4778.81
424.57	4801.50
424.78	4843.45
424.99	4833.94
425.21	4864.66
425.42	4837.79
425.64	4855.00
425.85	4882.36
426.06	4906.44
426.28	4896.53
426.49	4952.81
426.71	4944.12
426.92	4944.70
427.13	4997.78
427.35	5030.47
427.56	5052.83
427.78	5033.25
427.99	5061.60
428.20	5116.73
428.42	5117.87
428.63	5129.10
428.84	5103.62
429.06	5129.51
429.27	5148.10
429.49	5213.80
429.70	5249.44
429.91	5209.30
430.13	5249.44
430.34	5261.23
430.56	5291.13
430.77	5327.18
430.98	5266.15
431.20	5342.58
431.41	5373.38
431.62	5394.02
431.84	5365.43
432.05	5434.16
432.26	5425.31
432.48	5440.96
432.69	5510.51
432.91	5472.83
433.12	5526.65
433.33	5524.76
433.55	5607.17
433.76	5602.75
433.97	5592.27
434.19	5605.62
434.40	5673.69
434.61	5685.90
434.83	5709.16
435.04	5676.48
435.25	5761.10
435.47	5770.93
435.68	5717.44
435.89	5839.33
436.11	5807.88
436.32	5863.01
436.53	5873.00
436.75	5860.96
436.96	5887.83
437.17	5884.22
437.39	5917.16
437.60	5943.37
437.81	5972.37
438.03	6015.62
438.24	6029.06
438.45	6114.99
438.67	6024.14
438.88	6134.98
439.09	6192.24
439.31	6160.21
439.52	6199.77
439.73	6197.64
439.94	6135.71
440.16	6231.56
440.37	6199.12
440.58	6323.72
440.80	6307.66
441.01	6261.79
441.22	6432.83
441.44	6426.69
441.65	6376.80
441.86	6397.44
442.08	6449.14
442.29	6463.23
442.50	6524.17
442.71	6496.81
442.93	6582.99
443.14	6526.55
443.35	6625.10
443.57	6581.93
443.78	6645.82
443.99	6684.82
444.20	6643.04
444.42	6717.99
444.63	6721.84
444.84	6797.78
445.06	6836.45
445.27	6778.37
445.48	6808.35
445.69	6872.25
445.91	6911.48
446.12	6836.86
446.33	6953.59
446.54	7016.50
446.76	6943.60
446.97	6998.89
447.18	6998.07
447.39	7055.50
447.61	7126.11
447.82	7151.59
448.03	7114.32
448.25	7202.38
448.46	7240.47
448.67	7291.51
448.88	7239.82
449.10	7353.27
449.31	7331.24
449.52	7331.32
449.73	7392.84
449.95	7489.83
450.16	7395.05
450.37	7542.51
450.58	7681.44
450.79	7508.02
451.01	7557.25
451.22	7559.46
451.43	7599.19
451.64	7714.21
451.86	7715.35
452.07	7755.08
452.28	7812.84
452.49	7928.26
452.71	7842.25
452.92	7827.91
453.13	7936.70
453.34	7936.70
453.55	8050.89
453.77	8074.49
453.98	8062.03
454.19	8055.64
454.40	8157.39
454.62	8252.99
454.83	8137.81
455.04	8320.57
455.25	8182.78
455.46	8502.59
455.68	8349.49
455.89	8344.49
456.10	8395.44
456.31	8468.76
456.52	8511.60
456.74	8490.14
456.95	8686.50
457.16	8637.27
457.37	8712.06
457.58	8692.56
457.80	8706.73
458.01	8695.43
458.22	9066.28
458.43	8889.50
458.64	8969.61
458.86	8841.65
459.07	8938.65
459.28	8962.81
459.49	9096.18
459.70	9334.15
459.91	9255.59
460.13	9202.51
460.34	9297.86
460.55	9278.94
460.76	9457.85
460.97	9477.34
461.19	9461.45
461.40	9699.02
461.61	9595.80
461.82	9627.26
462.03	9673.54
462.24	9706.06
462.46	9702.78
462.67	9736.62
462.88	9896.28
463.09	9887.51
463.30	10036.44
463.51	9955.75
463.72	10171.85
463.94	10218.95
464.15	10218.95
464.36	10129.42
464.57	10471.84
464.78	10417.28
464.99	10488.47
465.20	10431.12
465.42	10625.27
465.63	10623.96
465.84	10634.36
466.05	10758.88
466.26	10871.60
466.47	10966.95
466.68	10908.71
466.90	11103.27
467.11	11032.33
467.32	11129.32
467.53	11331.33
467.74	11138.25
467.95	11272.51
468.16	11466.99
468.37	11536.21
468.59	11580.53
468.80	11771.81
469.01	11560.05
469.22	11822.92
469.43	12088.34
469.64	11910.74
469.85	12083.59
470.06	12153.88
470.28	12335.16
470.49	12096.70
470.70	12329.84
470.91	12612.62
471.12	12438.87
471.33	12773.34
471.54	12660.71
471.75	12724.44
471.96	13008.94
472.17	12968.72
472.39	13279.44
472.60	13061.94
472.81	13394.04
473.02	13328.67
473.23	13560.67
473.44	13683.46
473.65	13607.93
473.86	13759.48
474.07	13843.29
474.28	13934.95
474.49	14231.58
474.71	14163.92
474.92	14384.52
475.13	14390.01
475.34	14462.26
475.55	14500.36
475.76	14628.80
475.97	14998.18
476.18	14915.52
476.39	15191.01
476.60	15312.58
476.81	15389.26
477.02	15573.66
477.23	15599.54
477.44	15614.04
477.65	15875.77
477.87	16054.93
478.08	16125.13
478.29	16161.01
478.50	16556.84
478.71	16401.53
478.92	16607.06
479.13	16689.39
479.34	16800.88
479.55	17036.31
479.76	17021.57
479.97	17116.92
480.18	17602.05
480.39	17324.10
480.60	17731.15
480.81	17829.62
481.02	17919.64
481.23	18009.02
481.44	18270.09
481.65	18452.61
481.86	18730.15
482.07	18386.83
482.28	19142.77
482.49	18904.96
482.71	19029.64
482.92	19270.73
483.13	19512.96
483.34	19366.41
483.55	19616.67
483.76	19687.86
483.97	19988.58
484.18	19957.70
484.39	20208.78
484.60	20100.08
484.81	20585.53
485.02	20488.45
485.23	20917.79
485.44	20942.69
485.65	21177.14
485.86	21057.21
486.07	21474.10
486.28	21497.61
486.49	21711.01
486.70	21847.65
486.91	22019.35
487.12	22041.88
487.33	22050.32
487.54	22479.65
487.75	22598.76
487.96	22637.67
488.17	22587.05
488.38	23010.89
488.59	23095.44
488.80	23252.72
489.01	23253.05
489.22	23630.04
489.43	23634.38
489.64	23503.80
489.85	24085.75
490.06	23791.17
490.26	24200.03
490.47	24074.94
490.68	24530.32
490.89	24728.98
491.10	24506.40
491.31	24929.84
491.52	25222.37
491.73	25070.50
491.94	25144.96
492.15	25465.02
492.36	25560.78
492.57	25588.14
492.78	25582.98
492.99	25786.63
493.20	26088.01
493.41	26175.50
493.62	26293.46
493.83	26294.61
494.04	26405.94
494.25	26713.62
494.46	26763.59
494.67	26618.19
494.88	27044.74
495.08	27146.24
495.29	27249.21
495.50	27542.80
495.71	27449.91
495.92	27761.69
496.13	27815.92
496.34	27690.50
496.55	27910.21
496.76	28369.94
496.97	27951.74
497.18	28369.94
497.39	28290.15
497.60	28809.76
497.81	28365.51
498.02	28774.21
498.22	28525.83
498.43	29077.39
498.64	29182.16
498.85	29220.50
499.06	29382.54
499.27	29804.09
499.48	29153.90
499.69	29661.71
499.90	29758.87
500.11	30030.27
500.32	30323.45
500.52	29954.41
500.73	30577.81
500.94	30604.60
501.15	30679.96
501.36	30789.57
501.57	30521.86
501.78	30817.18
501.99	31246.10
502.20	31126.01
502.41	31213.34
502.61	31210.96
502.82	31614.90
503.03	31365.05
503.24	31816.26
503.45	31623.42
503.66	32080.45
503.87	31932.26
504.08	32278.53
504.28	32114.28
504.49	32283.52
504.70	32432.12
504.91	32611.69
505.12	32375.19
505.33	32902.34
505.54	32950.83
505.75	33032.02
505.95	33347.73
506.16	33187.74
506.37	33086.25
506.58	33675.08
506.79	33178.32
507.00	33772.81
507.21	33480.60
507.41	33589.64
507.62	33688.10
507.83	34254.90
508.04	33839.82
508.25	34290.94
508.46	34059.19
508.67	34589.62
508.87	34328.13
509.08	34844.63
509.29	34681.70
509.50	34943.75
509.71	35108.82
509.92	35220.48
510.12	35063.19
510.33	35330.74
510.54	35262.50
510.75	35442.64
510.96	35624.33
511.17	35891.72
511.37	35875.91
511.58	36139.36
511.79	35929.40
512.00	35937.02
512.21	36381.59
512.42	36364.55
512.62	36494.64
512.83	36824.03
513.04	36623.83
513.25	37069.63
513.46	36332.28
513.66	37391.65
513.87	37035.14
514.08	37474.47
514.29	37205.45
514.50	37316.53
514.71	37611.52
514.91	37458.90
515.12	37487.25
515.33	37913.64
515.54	37732.60
515.75	38142.93
515.95	37966.80
516.16	38068.71
516.37	38571.61
516.58	38676.63
516.78	38386.72
516.99	38697.11
517.20	38744.05
517.41	38721.11
517.62	39030.43
517.82	38984.23
518.03	39562.74
518.24	39899.76
518.45	39292.57
518.66	39772.62
518.86	39478.69
519.07	40070.80
519.28	39396.45
519.49	40158.37
519.69	40092.84
519.90	40273.06
520.11	40381.93
520.32	40282.73
520.52	40725.17
520.73	40345.07
520.94	40901.95
521.15	40948.97
521.36	40597.62
521.56	41419.27
521.77	40844.77
521.98	41447.12
522.19	41077.91
522.39	41504.63
522.60	41376.34
522.81	41543.62
523.02	41406.16
523.22	41788.56
523.43	41983.03
523.64	41911.27
523.84	42052.01
524.05	42449.23
524.26	42496.09
524.47	42318.82
524.67	42569.00
524.88	42762.08
525.09	43108.02
525.30	42700.64
525.50	42705.31
525.71	42865.30
525.92	43022.33
526.13	43438.65
526.33	43206.73
526.54	43106.14
526.75	43415.38
526.95	43890.35
527.16	43206.90
527.37	44010.60
527.58	44107.18
527.78	44130.94
527.99	44341.31
528.20	44516.61
528.40	44256.60
528.61	44140.20
528.82	44708.39
529.03	44593.70
529.23	44584.77
529.44	44967.58
529.65	45033.03
529.85	45084.39
530.06	44919.90
530.27	45092.75
530.47	44672.67
530.68	45611.05
530.89	44930.96
531.09	45560.83
531.30	45490.14
531.51	45240.37
531.72	45905.47
531.92	45807.82
532.13	46149.17
532.34	45976.57
532.54	46028.26
532.75	46145.81
532.96	46178.09
533.16	46489.14
533.37	46661.49
533.58	46344.30
533.78	46801.90
533.99	46988.92
534.20	46545.66
534.40	46843.52
534.61	47174.55
534.82	47162.18
535.02	47211.25
535.23	47301.93
535.44	47475.11
535.64	47405.40
535.85	47632.97
536.06	47629.61
536.26	47657.46
536.47	47740.12
536.68	48419.88
536.88	47665.57
537.09	48448.96
537.29	47847.02
537.50	48818.50
537.71	48244.74
537.91	48629.02
538.12	48719.78
538.33	48349.59
538.53	48613.29
538.74	48769.18
538.95	48787.20
539.15	48678.41
539.36	49135.19
539.56	49336.96
539.77	48969.31
539.98	49166.98
540.18	49503.01
540.39	49213.10
540.60	49656.36
540.80	49759.50
541.01	49858.70
541.21	49756.38
541.42	50032.94
541.63	49829.95
541.83	50175.32
542.04	50186.05
542.25	50217.75
542.45	50401.82
542.66	50473.50
542.86	50592.04
543.07	49526.93
543.28	50710.57
543.48	50631.52
543.69	50757.27
543.89	50659.87
544.10	51225.68
544.31	50940.44
544.51	50874.49
544.72	51158.01
544.92	50975.09
545.13	51493.14
545.33	51352.32
545.54	51129.01
545.75	51602.83
545.95	51345.69
546.16	51547.46
546.36	51950.58
546.57	51162.60
546.78	50535.35
546.98	51267.29
547.19	50364.55
547.39	51591.36
547.60	51812.13
547.80	52424.23
548.01	52510.08
548.22	52050.27
548.42	52243.27
548.63	52529.83
548.83	52375.24
549.04	52783.86
549.24	52553.99
549.45	52816.54
549.65	53152.49
549.86	52508.61
550.07	52757.40
550.27	53220.07
550.48	53199.92
550.68	52991.44
550.89	52974.97
551.09	53278.23
551.30	53071.47
551.50	53416.84
551.71	53175.59
551.91	53198.12
552.12	53559.71
552.33	53918.18
552.53	53383.91
552.74	54012.39
552.94	54118.39
553.15	53813.49
553.35	54116.92
553.56	53688.98
553.76	54228.00
553.97	53806.61
554.17	54118.31
554.38	54816.10
554.58	54147.80
554.79	54773.25
554.99	54156.40
555.20	54376.77
555.40	54924.88
555.61	54632.93
555.81	54264.37
556.02	55316.95
556.22	54988.70
556.43	54732.05
556.63	54901.78
556.84	54715.25
557.04	55432.12
557.25	54661.11
557.45	55214.71
557.66	55184.40
557.86	55022.20
558.07	55744.89
558.27	55399.36
558.48	55383.46
558.68	55513.14
558.89	55772.01
559.09	55841.80
559.30	55537.06
559.50	55725.15
559.71	55344.39
559.91	56180.12
560.12	55897.67
560.32	55978.03
560.53	56234.76
560.73	55779.54
560.94	56504.69
561.14	55898.73
561.35	56625.52
561.55	56276.87
561.76	56497.56
561.96	55850.16
562.17	56440.54
562.37	56683.68
562.57	56384.18
562.78	56452.67
562.98	56715.14
563.19	56725.87
563.39	56905.76
563.60	57038.96
563.80	56434.32
564.01	57254.49
564.21	56914.85
564.42	56842.11
564.62	57079.67
564.82	57421.85
565.03	56939.84
565.23	57056.90
565.44	57355.17
565.64	57013.65
565.85	57543.09
566.05	57221.15
566.25	57610.34
566.46	57189.04
566.66	57499.26
566.87	57432.74
567.07	57462.97
567.28	57607.89
567.48	57939.33
567.68	57266.37
567.89	58228.58
568.09	57759.19
568.30	57846.02
568.50	58219.90
568.71	58137.00
568.91	58431.50
569.11	57931.63
569.32	58063.27
569.52	58282.49
569.73	57725.19
569.93	58417.24
570.13	58259.71
570.34	58168.62
570.54	58648.42
570.75	58404.30
570.95	58442.64
571.15	58312.96
571.36	58864.36
571.56	58321.07
571.77	58275.03
571.97	57846.27
572.17	58658.74
572.38	58602.46
572.58	58933.41
572.79	58725.91
572.99	58829.62
573.19	58872.06
573.40	58668.32
573.60	58865.75
573.81	58715.59
574.01	58955.20
574.21	58807.50
574.42	58898.35
574.62	58639.24
574.82	59270.10
575.03	58941.85
575.23	59480.47
575.43	59054.98
575.64	59057.11
575.84	59512.50
576.05	58934.64
576.25	59336.13
576.45	59210.54
576.66	59732.53
576.86	59274.85
577.06	59683.13
577.27	59600.97
577.47	59714.92
577.67	59665.28
577.88	59153.61
578.08	59924.63
578.28	59921.27
578.49	59680.76
578.69	59935.61
578.89	59467.52
579.10	59716.88
579.30	60459.07
579.50	59837.63
579.71	59447.04
579.91	60066.10
580.11	59802.41
580.32	59781.11
580.52	59712.62
580.72	60427.86
580.93	59830.67
581.13	59994.34
581.33	60522.39
581.54	60019.82
581.74	60051.20
581.94	60206.51
582.15	60582.52
582.35	60123.69
582.55	60362.98
582.76	59972.31
582.96	60596.04
583.16	60206.68
583.37	60492.00
583.57	60193.98
583.77	60763.89
583.97	59748.26
584.18	61029.30
584.38	60818.04
584.58	60482.91
584.79	60917.73
584.99	60767.74
585.19	60615.70
585.40	60553.28
585.60	60959.43
585.80	60389.36
586.00	60927.81
586.21	60826.31
586.41	60948.37
586.61	61084.60
586.82	61060.68
587.02	60915.27
587.22	61229.10
587.42	60557.13
587.63	61296.52
587.83	60533.70
588.03	61069.12
588.23	60735.87
588.44	61043.64
588.64	60809.84
588.84	61185.03
589.05	61399.25
589.25	61409.41
589.45	61400.07
589.65	61139.32
589.86	61366.40
590.06	61347.81
590.26	61184.38
590.46	61594.54
590.67	60912.57
590.87	61583.08
591.07	61873.23
591.27	61334.29
591.48	61797.05
591.68	61089.76
591.88	62177.56
592.08	61232.46
592.29	61712.75
592.49	61573.08
592.69	61872.09
592.89	61467.49
593.10	61628.54
593.30	61341.33
593.50	62079.09
593.70	61014.97
593.90	62012.58
594.11	61704.40
594.31	61848.74
594.51	62150.44
594.71	62250.22
594.92	62213.44
595.12	61978.83
595.32	61972.60
595.52	62253.66
595.72	61489.85
595.93	62331.32
596.13	62000.04
596.33	61632.55
596.53	62266.61
596.73	62052.22
596.94	61952.77
597.14	62325.10
597.34	62041.17
597.54	62457.89
597.74	61946.39
597.95	62166.17
598.15	62107.85
598.35	62348.52
598.55	62491.39
598.75	62095.40
598.96	62740.83
599.16	62248.99
599.36	62385.22
599.56	62265.54
599.76	62168.39
599.97	62697.09
600.17	62437.41
600.37	62670.06
600.57	61857.01
600.77	63034.18
600.97	62595.10
601.18	63151.41
601.38	62616.32
601.58	62938.99
601.78	62682.83
601.98	62418.81
602.18	62898.45
602.39	63339.58
602.59	63098.98
602.79	62865.19
602.99	62896.72
603.19	62890.50
603.39	62656.46
603.60	62718.72
603.80	62809.89
604.00	62842.00
604.20	62890.66
604.40	63066.21
604.60	62891.15
604.80	62919.50
605.01	63044.10
605.21	62950.05
605.41	62928.75
605.61	62448.22
605.81	62883.37
606.01	63167.38
606.21	62660.14
606.42	63069.16
606.62	62843.07
606.82	63340.31
607.02	62978.23
607.22	63267.00
607.42	63419.37
607.62	62729.69
607.82	63090.87
608.03	63052.12
608.23	62886.24
608.43	62728.55
608.63	63284.12
608.83	63120.12
609.03	63104.14
609.23	63282.23
609.43	63390.86
609.63	63132.73
609.84	62997.40
610.04	63506.53
610.24	63463.44
610.44	63507.27
610.64	63250.37
610.84	63535.36
611.04	63999.60
611.24	63605.08
611.44	62910.32
611.64	63433.05
611.85	63447.79
612.05	63360.71
612.25	63466.88
612.45	63215.63
612.65	63579.19
612.85	63625.39
613.05	63150.51
613.25	63800.86
613.45	63570.67
613.65	63616.38
613.85	63196.96
614.05	63668.48
614.25	63891.46
614.46	63617.61
614.66	63410.76
614.86	63169.02
615.06	63490.39
615.26	63857.80
615.46	62977.33
615.66	63752.94
615.86	63690.68
616.06	63198.02
616.26	63268.31
616.46	63891.87
616.66	63383.24
616.86	63863.37
617.06	63341.63
617.26	63886.39
617.46	63627.85
617.66	63331.06
617.86	63211.78
618.07	63496.78
618.27	63457.70
618.47	63542.08
618.67	63570.10
618.87	63697.64
619.07	63374.15
619.27	63322.46
619.47	63370.46
619.67	63811.02
619.87	63336.63
620.07	63696.33
620.27	63714.11
620.47	63289.44
620.67	63552.57
620.87	63544.70
621.07	63677.82
621.27	63539.13
621.47	63173.04
621.67	63573.05
621.87	63282.48
622.07	63762.85
622.27	63600.65
622.47	63189.83
622.67	63389.38
622.87	62971.27
623.07	63412.89
623.27	63766.78
623.47	62767.46
623.67	63351.95
623.87	63793.24
624.07	63629.82
624.27	63230.71
624.47	63634.98
624.67	63426.82
624.87	63662.17
625.07	63144.86
625.27	63830.60
625.47	63322.95
625.67	63290.92
625.87	63522.83
626.07	63344.41
626.27	63449.76
626.47	63309.60
626.67	63239.39
626.87	62862.89
627.07	63337.53
627.27	63264.29
627.47	63487.60
627.67	63172.55
627.87	63065.48
628.07	63498.83
628.27	63228.58
628.47	63121.92
628.67	63694.29
628.86	63621.71
629.06	63236.20
629.26	63112.25
629.46	63468.60
629.66	63389.30
629.86	62851.75
630.06	63450.91
630.26	63338.02
630.46	63624.49
630.66	63135.52
630.86	63253.81
631.06	63201.63
631.26	62942.27
631.46	63410.11
631.66	63178.85
631.86	62937.52
632.06	63418.55
632.26	63038.20
632.45	63095.21
632.65	63247.83
632.85	63314.10
633.05	63184.26
633.25	63329.99
633.45	62885.83
633.65	62943.34
633.85	63526.27
634.05	62520.64
634.25	62839.55
634.45	62996.17
634.65	63317.62
634.84	62878.95
635.04	63096.77
635.24	62525.14
635.44	63011.41
635.64	62637.94
635.84	63005.19
636.04	62820.70
636.24	62793.18
636.44	62955.13
636.64	62344.51
636.84	63399.13
637.03	62650.15
637.23	63011.08
637.43	62960.87
637.63	62659.73
637.83	63028.94
638.03	62866.50
638.23	62388.01
638.43	62826.11
638.62	63033.61
638.82	61906.41
639.02	62935.96
639.22	62578.96
639.42	62894.10
639.62	62457.64
639.82	62685.29
640.02	62721.17
640.21	62925.89
640.41	62238.92
640.61	62701.68
640.81	62641.71
641.01	62540.30
641.21	62397.92
641.41	63116.84
641.61	62570.77
641.80	62520.88
642.00	62730.68
642.20	62735.02
642.40	61996.60
642.60	62528.50
642.80	62679.64
642.99	62234.00
643.19	62645.32
643.39	62079.75
643.59	62470.75
643.79	62287.33
643.99	62436.59
644.19	62279.55
644.38	61888.39
644.58	62304.62
644.78	62060.74
644.98	62089.83
645.18	62263.74
645.38	62552.42
645.57	62068.03
645.77	62243.18
645.97	62074.92
646.17	62473.12
646.37	62364.25
646.56	61970.31
646.76	62118.50
646.96	62116.86
647.16	61831.78
647.36	61976.12
647.55	61805.57
647.75	61988.82
647.95	61474.12
648.15	61942.21
648.35	61828.34
648.55	62037.40
648.74	61753.63
648.94	61730.28
649.14	62099.08
649.34	61635.75
649.54	61596.26
649.73	61753.96
649.93	61416.29
650.13	61587.25
650.33	61317.74
650.52	61844.97
650.72	61944.17
650.92	61591.19
651.12	61323.64
651.32	61673.51
651.51	61650.49
651.71	61570.30
651.91	61287.51
652.11	61087.39
652.30	60992.28
652.50	61567.18
652.70	61575.13
652.90	61105.33
653.10	61535.24
653.29	61298.90
653.49	61591.02
653.69	61049.21
653.89	61325.36
654.08	61189.46
654.28	61692.76
654.48	61329.46
654.68	61586.43
654.87	61389.67
655.07	60989.57
655.27	61639.60
655.47	61102.87
655.66	61049.29
655.86	60859.41
656.06	61430.62
656.26	60436.38
656.45	60867.11
656.65	60747.83
656.85	60615.45
657.04	60321.53
657.24	60359.70
657.44	60445.88
657.64	61120.56
657.83	60074.38
658.03	60835.24
658.23	60687.95
658.43	60545.33
658.62	60620.20
658.82	60313.83
659.02	60383.62
659.21	60542.22
659.41	60215.11
659.61	60853.92
659.81	60395.66
660.00	60075.03
660.20	60185.21
660.40	60067.17
660.59	60149.66
660.79	59768.25
660.99	60250.67
661.19	60205.04
661.38	60174.07
661.58	59442.21
661.78	59948.63
661.97	59639.31
662.17	60260.83
662.37	59534.37
662.56	59496.20
662.76	59540.27
662.96	59708.86
663.15	59906.28
663.35	59792.99
663.55	59490.54
663.74	59219.31
663.94	59678.06
664.14	59186.38
664.33	59590.32
664.53	59378.56
664.73	59886.21
664.93	59014.19
665.12	59632.43
665.32	59277.06
665.52	59281.49
665.71	59013.28
665.91	59109.87
666.10	58913.84
666.30	59328.51
666.50	58770.07
666.69	58742.87
666.89	59078.90
667.09	59423.04
667.28	58846.17
667.48	58683.48
667.68	58870.17
667.87	58944.72
668.07	58469.34
668.27	58978.31
668.46	58962.41
668.66	58612.62
668.86	59106.18
669.05	58526.93
669.25	58843.47
669.44	58624.74
669.64	58543.23
669.84	58578.21
670.03	58987.07
670.23	58516.94
670.43	58543.73
670.62	58427.73
670.82	58312.22
671.01	58515.96
671.21	58007.40
671.41	58259.88
671.60	58457.30
671.80	58827.74
672.00	58451.57
672.19	58754.99
672.39	58617.78
672.58	58524.23
672.78	58233.25
672.98	58642.44
673.17	58310.67
673.37	57480.26
673.56	57935.89
673.76	58191.56
673.96	58381.45
674.15	58035.50
674.35	58077.69
674.54	57896.32
674.74	57877.97
674.94	57833.16
675.13	57988.56
675.33	57424.80
675.52	58063.76
675.72	57930.56
675.91	57704.88
676.11	58132.00
676.31	57405.55
676.50	57582.33
676.70	57406.94
676.89	57565.21
677.09	57667.11
677.28	57621.08
677.48	56897.90
677.68	57519.41
677.87	57120.39
678.07	57069.35
678.26	57278.16
678.46	57335.92
678.65	57165.36
678.85	57496.15
679.04	56802.87
679.24	57229.67
679.44	56944.67
679.63	57297.91
679.83	56944.43
680.02	57026.10
680.22	56588.24
680.41	56842.85
680.61	56474.21
680.80	56426.29
681.00	56590.54
681.19	56604.46
681.39	56432.76
681.59	56313.08
681.78	56207.08
681.98	56506.32
682.17	55803.71
682.37	56337.90
682.56	55955.83
682.76	56464.71
682.95	56194.30
683.15	56177.01
683.34	55892.10
683.54	56076.09
683.73	56176.93
683.93	55658.79
684.12	56020.63
684.32	56250.49
684.51	55562.29
684.71	55893.82
684.90	55647.00
685.10	55519.04
685.29	55369.21
685.49	55671.00
685.68	55643.56
685.88	55601.94
686.07	55228.23
686.27	55816.98
686.46	55546.97
686.66	55290.00
686.85	55684.76
687.05	55348.32
687.24	55102.73
687.44	55446.21
687.63	55243.38
687.83	54622.03
688.02	55248.05
688.22	55366.26
688.41	55005.08
688.61	55073.32
688.80	55331.86
689.00	54885.40
689.19	54743.76
689.39	55415.41
689.58	55148.03
689.77	54894.98
689.97	55066.28
690.16	54588.28
690.36	54178.19
690.55	54033.36
690.75	54683.80
690.94	54176.31
691.14	54408.47
691.33	53823.49
691.53	54284.12
691.72	54113.56
691.91	54257.82
692.11	54149.60
692.30	54305.50
692.50	54406.17
692.69	53857.97
692.89	54043.85
693.08	53851.09
693.28	53823.16
693.47	53950.13
693.66	53764.91
693.86	53556.84
694.05	53550.94
694.25	53571.09
694.44	53765.82
694.64	53595.51
694.83	53563.31
695.02	53625.00
695.22	53689.63
695.41	53252.18
695.61	53056.97
695.80	53000.12
695.99	52910.17
696.19	53065.16
696.38	53098.59
696.58	52736.92
696.77	53352.29
696.96	53260.29
697.16	52912.63
697.35	52852.01
697.55	52771.49
697.74	52588.07
697.93	53096.78
698.13	52401.70
698.32	52658.44
698.52	52348.21
698.71	51794.85
698.90	52685.22
699.10	52198.71
699.29	52274.57
699.49	52748.71
699.68	52365.09
699.87	52353.62
700.07	52732.98
700.26	52356.48
700.45	52166.19
700.65	51699.09
700.84	52142.02
701.04	51671.15
701.23	51799.52
701.42	51630.19
701.62	51473.89
701.81	51765.69
702.00	51577.03
702.20	51297.03
702.39	51524.60
702.58	51799.77
702.78	51449.56
702.97	51502.15
703.17	51635.27
703.36	51496.50
703.55	51164.65
703.75	51013.02
703.94	51165.06
704.13	50820.18
704.33	50703.12
704.52	51192.58
704.71	51019.33
704.91	51072.82
705.10	50783.73
705.29	50926.18
705.49	50912.18
705.68	50945.93
705.87	50837.47
706.07	50390.60
706.26	50916.03
706.45	50180.72
706.65	49920.55
706.84	50526.09
707.03	50690.99
707.23	49921.29
707.42	49873.94
707.61	50319.00
707.80	49920.30
708.00	49947.50
708.19	49799.72
708.38	50340.79
708.58	49633.01
708.77	50289.10
708.96	49611.39
709.16	49530.62
709.35	50424.51
709.54	49762.28
709.74	49630.23
709.93	49118.81
710.12	49868.12
710.31	50096.02
710.51	49343.84
710.70	49374.31
710.89	49484.00
711.09	48889.27
711.28	48871.17
711.47	49385.13
711.66	49167.06
711.86	49061.06
712.05	48963.16
712.24	49123.07
712.43	48646.06
712.63	48132.92
712.82	48770.08
713.01	48611.73
713.21	48233.43
713.40	48284.06
713.59	48775.49
713.78	48141.52
713.98	48631.72
714.17	48134.23
714.36	48268.99
714.55	47681.46
714.75	47869.30
714.94	47887.90
715.13	48093.60
715.32	47521.64
715.52	47802.70
715.71	47449.22
715.90	47479.21
716.09	47262.86
716.29	47613.88
716.48	47530.98
716.67	46906.02
716.86	47369.93
717.06	47331.26
717.25	47389.75
717.44	47428.74
717.63	47390.73
717.82	46852.36
718.02	47002.52
718.21	47235.83
718.40	47289.24
718.59	47004.49
718.79	46674.19
718.98	46638.80
719.17	46913.89
719.36	47034.22
719.55	46721.87
719.75	46651.58
719.94	46585.23
720.13	46726.95
720.32	46479.55
720.51	46196.60
720.71	46234.61
720.90	45770.79
721.09	46112.23
721.28	45807.98
721.47	46321.69
721.67	46129.43
721.86	46070.12
722.05	46070.12
722.24	45563.95
722.43	46073.64
722.63	45656.68
722.82	45721.80
723.01	45763.58
723.20	45237.50
723.39	45285.18
723.58	45542.81
723.78	44882.30
723.97	45492.27
724.16	45042.29
724.35	45190.48
724.54	44842.98
724.73	45273.71
724.93	44854.94
725.12	45234.71
725.31	44391.93
725.50	44870.50
725.69	44942.67
725.88	44592.96
726.08	44168.79
726.27	44675.13
726.46	43799.58
726.65	44637.61
726.84	44044.19
727.03	44251.28
727.23	44587.97
727.42	44162.64
727.61	44203.36
727.80	43917.22
727.99	44137.49
728.18	43988.40
728.37	43697.59
728.56	43608.96
728.76	43410.88
728.95	43655.40
729.14	43472.15
729.33	43337.97
729.52	43386.96
729.71	43320.27
729.90	43276.94
730.09	42960.65
730.29	43207.72
730.48	42704.74
730.67	43182.57
730.86	42734.14
731.05	43112.69
731.24	42914.28
731.43	42998.99
731.62	42707.03
731.81	42571.62
732.01	43094.34
732.20	42598.32
732.39	42912.81
732.58	42736.11
732.77	42070.36
732.96	42656.57
733.15	42697.28
733.34	42343.31
733.53	42422.28
733.72	42437.11
733.92	42409.50
734.11	42311.94
734.30	42191.27
734.49	42462.26
734.68	42240.67
734.87	42057.33
735.06	42074.70
735.25	42012.69
735.44	41598.42
735.63	41709.01
735.82	41739.90
736.01	41436.72
736.20	41434.50
736.40	41729.82
736.59	41610.55
736.78	41786.02
736.97	41342.02
737.16	41507.58
737.35	41540.67
737.54	41544.77
737.73	41280.00
737.92	41474.64
738.11	41533.95
738.30	41274.19
738.49	41153.77
738.68	41015.08
738.87	41181.21
739.06	40873.77
739.25	41033.84
739.44	41005.82
739.63	40862.06
739.82	40568.29
740.01	40895.81
740.20	40420.02
740.39	40368.00
740.59	40348.67
740.78	40373.16
740.97	40177.79
741.16	39929.33
741.35	40181.23
741.54	40076.86
741.73	40140.27
741.92	39948.50
742.11	40062.04
742.30	40069.57
742.49	39694.14
742.68	39946.12
742.87	39881.00
743.06	39406.11
743.25	39788.10
743.44	39571.10
743.63	39790.80
743.82	39445.93
744.01	39339.92
744.20	39056.65
744.39	39420.61
744.58	39254.40
744.77	39025.52
744.96	38686.62
745.15	39146.35
745.34	38832.35
745.53	38936.56
745.72	38697.43
745.91	38690.14
746.10	38474.70
746.29	38763.71
746.48	38737.17
746.67	38588.56
746.86	38604.13
747.04	38518.85
747.23	38323.39
747.42	38732.74
747.61	38243.20
747.80	38919.76
747.99	38235.66
748.18	38654.35
748.37	38483.46
748.56	37943.70
748.75	38235.58
748.94	38061.25
749.13	38015.87
749.32	37701.38
749.51	37840.40
749.70	37923.22
749.89	37708.18
750.08	37863.50
750.27	37355.44
750.46	37555.73
750.65	37897.91
750.84	37396.89
751.02	37631.84
751.21	37404.51
751.40	37570.48
751.59	37610.37
751.78	37326.20
751.97	37381.00
752.16	37143.76
752.35	37417.62
752.54	36986.81
752.73	37344.96
752.92	36973.70
753.11	36926.51
753.30	37061.27
753.49	37177.60
753.67	37030.22
753.86	36723.60
754.05	37017.69
754.24	36785.78
754.43	36721.14
754.62	36660.85
754.81	36409.44
755.00	36510.37
755.19	36497.67
755.38	36096.27
755.56	36472.44
755.75	36635.87
755.94	36167.13
756.13	36177.37
756.32	36265.43
756.51	36049.00
756.70	36176.79
756.89	36073.74
757.08	35930.96
757.26	36011.65
757.45	36006.32
757.64	35758.44
757.83	36064.40
758.02	35814.55
758.21	35685.28
758.40	35811.27
758.59	35822.74
758.77	35597.96
758.96	35631.05
759.15	35631.95
759.34	35321.89
759.53	35409.79
759.72	35435.18
759.91	35160.92
760.09	35263.15
760.28	35293.87
760.47	34903.45
760.66	35299.12
760.85	34773.44
761.04	35089.57
761.23	35043.94
761.41	34965.87
761.60	35097.19
761.79	34850.69
761.98	34534.16
762.17	34918.11
762.36	34521.13
762.54	34895.42
762.73	34741.25
762.92	34537.27
763.11	34910.00
763.30	34928.93
763.49	34754.52
763.67	34577.17
763.86	34566.76
764.05	34696.60
764.24	34469.44
764.43	34806.87
764.61	34302.90
764.80	34313.39
764.99	34677.76
765.18	34059.19
765.37	34313.39
765.55	34260.47
765.74	33981.13
765.93	33797.46
766.12	34133.58
766.31	33951.06
766.49	33965.56
766.68	33985.96
766.87	33774.53
767.06	33610.53
767.25	33762.98
767.43	33718.99
767.62	33520.66
767.81	33737.34
768.00	33426.04
768.19	33429.81
768.37	33488.30
768.56	33544.34
768.75	33615.69
768.94	33656.73
769.12	33314.88
769.31	33285.14
769.50	33175.78
769.69	33379.76
769.88	32821.98
770.06	33418.59
770.25	32877.84
770.44	32888.17
770.63	33172.01
770.81	32965.58
771.00	32857.04
771.19	33009.49
771.38	32883.82
771.56	33068.63
771.75	32407.79
771.94	32794.78
772.13	32769.79
772.31	32576.55
772.50	32930.03
772.69	32693.77
772.88	33028.25
773.06	32491.27
773.25	32588.34
773.44	32619.64
773.62	32559.18
773.81	32622.34
774.00	32481.28
774.19	32534.52
774.37	32463.83
774.56	32729.49
774.75	32161.47
774.94	32594.73
775.12	32219.63
775.31	32463.09
775.50	32332.51
775.68	32192.51
775.87	32072.58
776.06	31879.75
776.25	32194.23
776.43	31933.40
776.62	32253.79
776.81	31860.99
776.99	32094.62
777.18	31973.38
777.37	31530.44
777.55	31790.37
777.74	31806.18
777.93	31747.04
778.12	31724.92
778.30	31507.18
778.49	31490.14
778.68	31650.62
778.86	31499.73
779.05	31758.42
779.24	31678.64
779.42	31462.86
779.61	31413.96
779.80	31483.42
779.98	31594.83
780.17	31706.41
780.36	31338.10
780.54	31595.49
780.73	30931.86
780.92	31475.64
781.10	31170.74
781.29	31123.47
781.48	30864.12
781.66	31034.43
781.85	31093.49
782.04	30947.10
782.22	31004.85
782.41	30798.50
782.60	31070.31
782.78	30970.12
782.97	31019.11
783.16	30662.43
783.34	30719.70
783.53	30806.04
783.71	30593.79
783.90	30594.93
784.09	30661.78
784.27	30587.81
784.46	30504.41
784.65	30628.60
784.83	30340.98
785.02	30307.40
785.20	30711.09
785.39	30053.45
785.58	30616.23
785.76	30470.99
785.95	30403.65
786.14	30469.60
786.32	30480.41
786.51	30362.78
786.69	30622.87
786.88	30464.93
787.07	30468.94
787.25	30470.74
787.44	30413.07
787.62	30406.03
787.81	30491.63
788.00	30462.06
788.18	30241.21
788.37	30127.83
788.55	30616.72
788.74	30287.08
788.93	30409.47
789.11	30490.90
789.30	30366.38
789.48	30195.91
789.67	30432.32
789.86	30301.34
790.04	30399.47
790.23	30314.36
790.41	30220.89
790.60	30420.77
790.78	30453.38
790.97	30147.49
791.16	30398.41
791.34	30720.60
791.53	30265.62
791.71	30623.69
791.90	30264.80
792.08	30350.24
792.27	30378.26
792.46	30281.02
792.64	30325.83
792.83	30160.19
793.01	30296.34
793.20	30227.36
793.38	30193.78
793.57	30239.57
793.75	30203.53
793.94	30265.70
794.12	30533.33
794.31	30210.82
794.50	30376.62
794.68	30511.29
794.87	30348.36
795.05	30638.76
795.24	30437.32
795.42	30334.19
795.61	30700.53
795.79	30726.90
795.98	30346.64
796.16	30586.25
796.35	30659.40
796.53	30387.10
796.72	30622.05
796.90	30588.79
797.09	30543.65
797.27	30534.89
797.46	30432.98
797.64	30641.63
797.83	30518.09
798.01	30613.20
798.20	30669.40
798.38	30496.63
798.57	30730.18
798.75	30580.52
798.94	30187.96
799.12	30933.99
799.31	30554.96
799.49	30542.34
799.68	30442.48
799.86	30457.64
800.05	30467.39
800.23	30385.88
800.42	30316.98
800.60	30617.30
800.79	30160.44
800.97	30392.02
801.16	30566.10
801.34	30139.22
801.53	30217.04
801.71	30406.93
801.90	30170.59
802.08	30531.45
802.27	30297.40
802.45	30154.13
802.64	30334.84
802.82	30455.51
803.00	30096.29
803.19	30244.57
803.37	30544.23
803.56	30200.49
803.74	30185.09
803.93	30354.50
804.11	30135.37
804.30	30047.06
804.48	30152.24
804.67	30178.54
804.85	30063.03
805.03	30307.64
805.22	29999.55
805.40	29879.29
805.59	30045.18
805.77	30008.07
805.96	29867.66
806.14	29852.18
806.32	29964.65
806.51	30180.26
806.69	29889.20
806.88	29760.10
807.06	29705.70
807.25	29758.30
807.43	29711.52
807.61	29724.87
807.80	29529.09
807.98	29635.91
808.17	29446.60
808.35	29402.85
808.53	29778.86
808.72	29567.18
808.90	29599.78
809.09	29742.49
809.27	29706.11
809.45	29407.44
809.64	29691.12
809.82	29356.08
810.01	29438.65
810.19	29445.53
810.37	29260.56
810.56	29166.35
810.74	29393.43
810.93	29058.14
811.11	29115.32
811.29	28922.56
811.48	29004.07
811.66	28975.32
811.84	28873.08
812.03	28836.63
812.21	28844.00
812.40	28973.92
812.58	29021.93
812.76	28776.25
812.95	28949.92
813.13	28567.20
813.31	28794.44
813.50	28821.97
813.68	28722.27
813.86	28925.76
814.05	29093.85
814.23	28579.65
814.42	28869.15
814.60	28686.96
814.78	28793.79
814.97	28697.53
815.15	28636.75
815.33	28742.83
815.52	28499.37
815.70	28568.92
815.88	28621.59
816.07	28340.28
816.25	28445.06
816.43	28421.79
816.62	28182.51
816.80	28327.42
816.98	28227.97
817.17	28204.54
817.35	28180.54
817.53	28236.90
817.72	28312.18
817.90	28019.90
818.08	28075.11
818.26	28155.88
818.45	27846.89
818.63	28044.47
818.81	27946.91
819.00	27624.23
819.18	27949.45
819.36	27892.35
819.55	27901.61
819.73	27724.91
819.91	27929.38
820.09	27770.13
820.28	27981.64
820.46	27706.15
820.64	28058.81
820.83	27621.04
821.01	27689.68
821.19	27615.06
821.38	27600.47
821.56	27455.64
821.74	27613.34
821.92	27332.27
822.11	27692.22
822.29	27268.46
822.47	27314.50
822.65	27420.50
822.84	27469.08
823.02	27178.68
823.20	27553.86
823.39	27179.00
823.57	27275.50
823.75	27276.08
823.93	27103.80
824.12	27223.48
824.30	27107.08
824.48	27051.13
824.66	27338.91
824.85	26723.37
825.03	27144.02
825.21	27173.35
825.39	26957.41
825.58	27043.10
825.76	26895.32
825.94	26903.43
826.12	26740.57
826.31	26651.94
826.49	26700.19
826.67	26729.02
826.85	26581.24
827.03	26643.91
827.22	26751.71
827.40	26622.36
827.58	26615.40
827.76	26668.24
827.95	26499.90
828.13	26558.96
828.31	26555.36
828.49	26654.15
828.67	26381.03
828.86	26320.17
829.04	26396.35
829.22	26182.95
829.40	26121.35
829.58	26090.30
829.77	26176.32
829.95	26147.40
830.13	26090.55
830.31	26026.82
830.49	26048.61
830.68	26128.23
830.86	26008.14
831.04	25936.71
831.22	25947.52
831.40	25901.40
831.59	25986.10
831.77	25758.78
831.95	25980.94
832.13	25579.54
832.31	25842.91
832.50	25748.78
832.68	25579.13
832.86	25566.92
833.04	25749.77
833.22	25287.34
833.40	25786.79
833.59	25332.72
833.77	25637.21
833.95	25016.51
834.13	25766.48
834.31	25381.13
834.49	25404.64
834.67	25351.56
834.86	25396.78
835.04	25321.41
835.22	25375.48
835.40	25277.10
835.58	25183.71
835.76	25296.84
835.95	25207.79
836.13	25117.35
836.31	25011.02
836.49	25249.49
836.67	25171.75
836.85	25146.03
837.03	25037.48
837.21	24993.74
837.40	24854.80
837.58	24590.78
837.76	24812.62
837.94	24700.06
838.12	24877.50
838.30	24680.48
838.48	24661.48
838.66	24654.51
838.85	24591.93
839.03	24650.83
839.21	24592.01
839.39	24505.58
839.57	24612.73
839.75	24408.67
839.93	24496.33
840.11	24526.15
840.29	24452.01
840.47	24459.87
840.66	24409.33
840.84	24298.90
841.02	24118.19
841.20	24194.95
841.38	24099.43
841.56	24077.80
841.74	24345.52
841.92	24094.35
842.10	24059.21
842.28	24221.65
842.46	23967.71
842.65	24013.33
842.83	24116.80
843.01	24325.77
843.19	23941.33
843.37	24102.63
843.55	23942.97
843.73	24069.04
843.91	24050.77
844.09	23911.18
844.27	24053.39
844.45	23778.64
844.63	23736.45
844.81	23757.17
844.99	23756.03
845.17	23563.68
845.35	23772.90
845.54	23604.48
845.72	23574.25
845.90	23492.66
846.08	23555.82
846.26	23284.75
846.44	23524.44
846.62	23254.11
846.80	23206.11
846.98	23233.55
847.16	23228.47
847.34	23263.37
847.52	23183.58
847.70	23144.09
847.88	23230.11
848.06	23005.41
848.24	23218.80
848.42	23163.84
848.60	23015.48
848.78	23225.93
848.96	23043.91
849.14	23083.80
849.32	23118.78
849.50	22898.26
849.68	23020.56
849.86	22943.56
850.04	22796.19
850.22	22782.59
850.40	22628.74
850.58	22824.94
850.76	23191.69
850.94	22427.63
851.12	22781.85
851.30	22588.03
851.48	22778.98
851.66	22536.01
851.84	22501.93
852.02	22462.20
852.20	22600.89
852.38	22293.78
852.56	22454.67
852.74	22458.60
852.92	22324.99
853.10	22231.11
853.28	22283.05
853.46	21877.06
853.64	22246.02
853.82	21968.23
854.00	22059.41
854.18	21908.27
854.36	21851.58
854.54	21983.47
854.72	21804.64
854.90	21756.72
855.07	21837.74
855.25	21898.11
855.43	21920.06
855.61	21914.82
855.79	21808.82
855.97	21894.51
856.15	21787.44
856.33	21721.82
856.51	21898.52
856.69	21602.88
856.87	21864.36
857.05	21707.90
857.23	21806.03
857.41	21579.20
857.59	21651.45
857.77	21669.72
857.94	21591.98
858.12	21670.54
858.30	21614.43
858.48	21480.98
858.66	21407.42
858.84	21543.81
859.02	21320.91
859.20	21229.00
859.38	21516.78
859.56	21383.33
859.74	21303.30
859.92	21276.10
860.09	21123.65
860.27	21221.05
860.45	20962.93
860.63	20971.77
860.81	21161.25
860.99	20962.76
861.17	20764.11
861.35	20446.35
861.53	20269.24
861.70	20253.26
861.88	20697.26
862.06	20646.06
862.24	20342.80
862.42	20309.87
862.60	20593.55
862.78	20623.86
862.96	20627.80
863.14	20525.56
863.31	20519.83
863.49	20476.90
863.67	20396.87
863.85	20378.60
864.03	20437.42
864.21	20435.12
864.39	20483.37
864.56	20279.15
864.74	20393.18
864.92	20283.25
865.10	20162.58
865.28	20291.68
865.46	20452.00
865.64	20046.66
865.81	20271.37
865.99	19978.84
866.17	20280.54
866.35	20145.05
866.53	20136.86
866.71	20128.01
866.88	20079.35
867.06	19918.38
867.24	19963.93
867.42	19762.08
867.60	19842.77
867.78	19694.58
867.95	19877.91
868.13	19605.86
868.31	19800.83
868.49	19708.01
868.67	19604.47
868.84	19598.49
869.02	19646.49
869.20	19305.55
869.38	19554.99
869.56	19401.72
869.73	19309.40
869.91	19401.47
870.09	19360.92
870.27	19243.70
870.45	19342.25
870.62	19147.52
870.80	19272.53
870.98	19199.54
871.16	19222.48
871.34	19201.18
871.51	19224.77
871.69	18971.40
871.87	19033.33
872.05	18939.78
872.23	18957.39
872.40	18821.98
872.58	18859.09
872.76	18733.02
872.94	18750.79
873.11	18763.41
873.29	18639.71
873.47	18723.02
873.65	18633.16
873.83	18688.12
874.00	18639.63
874.18	18739.57
874.36	18666.58
874.54	18681.33
874.71	18577.70
874.89	18444.17
875.07	18523.22
875.25	18484.88
875.42	18449.74
875.60	18448.02
875.78	18513.88
875.96	18333.01
876.13	18502.91
876.31	18243.63
876.49	18282.38
876.66	18167.37
876.84	18436.72
877.02	18204.15
877.20	18199.64
877.37	18294.18
877.55	18173.84
877.73	18109.70
877.91	18086.84
878.08	18202.76
878.26	18141.48
878.44	18063.99
878.61	18092.41
878.79	17974.20
878.97	18046.86
879.15	18145.41
879.32	18065.21
879.50	18063.74
879.68	18174.49
879.85	17986.49
880.03	18148.61
880.21	17956.67
880.38	18134.19
880.56	17889.42
880.74	18150.66
880.92	17846.90
881.09	17992.47
881.27	17884.01
881.45	17922.68
881.62	17854.03
881.80	17766.95
881.98	17707.31
882.15	17856.49
882.33	17685.36
882.51	17771.70
882.68	17561.09
882.86	17798.24
883.04	17581.32
883.21	17681.42
883.39	17866.48
883.57	17678.64
883.74	17687.81
883.92	17791.11
884.10	17745.81
884.27	17704.85
884.45	17588.61
884.63	17808.15
884.80	17730.08
884.98	17686.09
885.16	17651.61
885.33	17686.83
885.51	17672.33
885.69	17627.85
885.86	17617.69
886.04	17643.82
886.21	17467.04
886.39	17640.88
886.57	17328.27
886.74	17620.07
886.92	17562.40
887.10	17556.91
887.27	17555.43
887.45	17501.29
887.62	17479.17
887.80	17501.61
887.98	17671.51
888.15	17670.20
888.33	17584.68
888.51	17742.04
888.68	17574.52
888.86	17657.10
889.03	17533.32
889.21	17653.82
889.39	17690.68
889.56	17687.57
889.74	17733.61
889.91	17724.92
890.09	17651.44
890.27	17719.27
890.44	17728.86
890.62	17715.26
890.79	17746.88
890.97	17751.55
891.14	17677.82
891.32	17693.79
891.50	17590.33
891.67	17668.48
891.85	17552.73
892.02	17554.04
892.20	17683.96
892.38	17571.98
892.55	17472.29
892.73	17561.09
892.90	17449.35
893.08	17517.01
893.25	17502.92
893.43	17667.50
893.60	17464.59
893.78	17558.30
893.96	17480.72
894.13	17525.62
894.31	17646.45
894.48	17562.97
894.66	17627.36
894.83	17617.69
895.01	17607.70
895.18	17664.80
895.36	17547.65
895.53	17620.23
895.71	17508.49
895.89	17590.82
896.06	17444.68
896.24	17510.71
896.41	17410.36
896.59	17477.20
896.76	17264.13
896.94	17361.20
897.11	17438.21
897.29	17403.72
897.46	17288.46
897.64	17318.44
897.81	17284.36
897.99	17162.39
898.16	17387.91
898.34	17331.88
898.51	17301.90
898.69	17234.15
898.86	17338.76
899.04	17334.74
899.21	17224.97
899.39	17227.10
899.56	17151.98
899.74	17360.79
899.91	17190.90
900.09	17107.50
900.26	17157.96
900.44	17047.37
900.61	17079.08
900.79	17170.33
900.96	17022.72
901.14	17084.48
901.31	16931.29
901.49	16913.93
901.66	16987.08
901.84	16941.21
902.01	16843.64
902.19	16936.21
902.36	16792.61
902.54	16775.08
902.71	16754.02
902.88	16838.48
903.06	16578.55
903.23	16915.48
903.41	16721.34
903.58	16699.30
903.76	16559.88
903.93	16657.44
904.11	16741.41
904.28	16681.93
904.45	16605.01
904.63	16550.95
904.80	16405.46
904.98	16567.25
905.15	16361.96
905.33	16522.52
905.50	16406.61
905.68	16447.24
905.85	16333.94
906.02	16318.62
906.20	16369.66
906.37	16191.65
906.55	16111.29
906.72	16231.22
906.90	16034.69
907.07	15973.42
907.24	16048.21
907.42	15897.81
907.59	15839.07
907.77	15803.11
907.94	15826.21
908.11	15902.89
908.29	15758.87
908.46	15769.28
908.64	15660.49
908.81	15693.58
908.98	15588.89
909.16	15678.51
909.33	15564.81
909.51	15490.43
909.68	15455.45
909.85	15483.14
910.03	15444.88
910.20	15328.06
910.37	15321.51
910.55	15274.57
910.72	15216.57
910.90	15116.71
911.07	15106.15
911.24	15017.43
911.42	15118.43
911.59	14953.28
911.76	14982.94
911.94	14905.20
912.11	14880.70
912.29	14834.42
912.46	14697.78
912.63	14790.18
912.81	14612.99
912.98	14738.49
913.15	14603.16
913.33	14661.65
913.50	14628.48
913.67	14522.97
913.85	14527.63
914.02	14627.82
914.19	14535.91
914.37	14476.11
914.54	14488.40
914.71	14475.70
914.89	14427.20
915.06	14409.10
915.23	14332.59
915.41	14271.23
915.58	14191.03
915.75	14156.13
915.93	14146.88
916.10	14117.14
916.27	14041.69
916.45	14021.30
916.62	13896.78
916.79	14023.26
916.97	13871.55
917.14	13926.35
917.31	13819.45
917.49	13822.72
917.66	13857.87
917.83	13701.24
918.00	13730.57
918.18	13636.60
918.35	13567.87
918.52	13631.69
918.70	13460.48
918.87	13473.83
919.04	13519.95
919.21	13449.58
919.39	13262.65
919.56	13412.56
919.73	13260.68
919.91	13325.07
920.08	13270.76
920.25	13173.11
920.42	13289.84
920.60	13142.63
920.77	13045.72
920.94	13118.39
921.11	12940.38
921.29	13034.09
921.46	12817.01
921.63	12981.25
921.81	12844.78
921.98	12854.61
922.15	12798.00
922.32	12890.00
922.50	12792.27
922.67	12762.29
922.84	12691.51
923.01	12600.33
923.19	12589.93
923.36	12653.25
923.53	12411.84
923.70	12505.55
923.87	12430.11
924.05	12454.19
924.22	12342.04
924.39	12380.54
924.56	12219.74
924.74	12307.72
924.91	12265.78
925.08	12206.55
925.25	12178.29
925.43	12159.45
925.60	12076.71
925.77	12209.09
925.94	12087.36
926.11	12045.17
926.29	11990.69
926.46	12008.14
926.63	11952.68
926.80	11926.47
926.97	11804.16
927.15	11848.65
927.32	11747.07
927.49	11734.04
927.66	11741.91
927.83	11741.00
928.01	11609.53
928.18	11583.07
928.35	11512.86
928.52	11608.46
928.69	11432.33
928.87	11448.72
929.04	11396.70
929.21	11439.79
929.38	11315.03
929.55	11403.75
929.72	11302.66
929.90	11303.39
930.07	11286.27
930.24	11188.87
930.41	11103.68
930.58	11115.56
930.75	11128.33
930.93	11025.44
931.10	11049.04
931.27	10957.62
931.44	10965.56
931.61	10864.88
931.78	10937.96
931.95	10874.96
932.13	10800.58
932.30	10886.43
932.47	10703.34
932.64	10745.53
932.81	10732.91
932.98	10706.70
933.15	10686.63
933.33	10615.20
933.50	10682.86
933.67	10585.87
933.84	10600.45
934.01	10618.88
934.18	10556.54
934.35	10491.66
934.52	10511.40
934.70	10485.68
934.87	10452.34
935.04	10399.42
935.21	10390.00
935.38	10348.63
935.55	10241.15
935.72	10366.65
935.89	10205.52
936.06	10274.66
936.24	10164.07
936.41	10274.74
936.58	10125.16
936.75	10213.22
936.92	10168.33
937.09	10155.39
937.26	10073.14
937.43	10067.81
937.60	10072.24
937.77	10043.48
937.94	9983.77
938.12	10028.00
938.29	9912.50
938.46	9969.76
938.63	9853.19
938.80	9914.87
938.97	9831.07
939.14	9799.61
939.31	9756.52
939.48	9804.45
939.65	9697.30
939.82	9683.37
939.99	9653.72
940.16	9652.08
940.33	9606.86
940.50	9626.93
940.67	9554.92
940.85	9581.95
941.02	9541.24
941.19	9563.28
941.36	9487.42
941.53	9520.27
941.70	9510.11
941.87	9404.76
942.04	9441.71
942.21	9381.09
942.38	9392.64
942.55	9330.96
942.72	9328.33
942.89	9278.12
943.06	9270.50
943.23	9237.90
943.40	9221.68
943.57	9228.72
943.74	9151.14
943.91	9168.02
944.08	9106.58
944.25	9155.65
944.42	9049.07
944.59	9046.62
944.76	9069.22
944.93	9052.68
945.10	9026.63
945.27	8974.36
945.44	8887.12
945.61	8898.59
945.78	8831.09
945.95	8886.14
946.12	8759.90
946.29	8807.74
946.46	8785.95
946.63	8734.67
946.80	8708.62
946.97	8708.95
947.14	8667.25
947.31	8719.27
947.48	8664.79
947.65	8663.97
947.82	8637.59
947.99	8659.55
948.16	8543.14
948.33	8636.37
948.50	8501.12
948.67	8557.23
948.84	8500.05
949.01	8452.87
949.18	8462.62
949.35	8484.24
949.52	8369.88
949.68	8395.85
949.85	8398.06
950.02	8384.96
950.19	8333.84
950.36	8294.11
950.53	8318.19
950.70	8281.66
950.87	8233.74
951.04	8342.77
951.21	8233.57
951.38	8168.61
951.55	8178.69
951.72	8198.76
951.89	8127.24
952.06	8163.78
952.23	8159.60
952.39	8118.48
952.56	8049.50
952.73	8074.65
952.90	7993.88
953.07	8087.59
953.24	7975.04
953.41	7998.63
953.58	7913.68
953.75	7956.44
953.92	7879.03
954.09	7862.32
954.25	7806.94
954.42	7831.19
954.59	7791.05
954.76	7756.39
954.93	7725.51
955.10	7786.62
955.27	7706.18
955.44	7722.89
955.61	7705.85
955.77	7759.18
955.94	7679.72
956.11	7711.26
956.28	7706.18
956.45	7693.56
956.62	7695.86
956.79	7681.44
956.96	7643.35
957.12	7658.09
957.29	7591.16
957.46	7590.35
957.63	7546.36
957.80	7515.64
957.97	7488.27
958.14	7541.44
958.30	7414.79
958.47	7455.51
958.64	7456.08
958.81	7453.30
958.98	7357.86
959.15	7352.04
959.32	7421.51
959.48	7362.28
959.65	7289.70
959.82	7321.41
959.99	7236.13
960.16	7291.67
960.33	7266.36
960.49	7218.02
960.66	7212.70
960.83	7227.28
961.00	7221.96
961.17	7213.19
961.33	7166.74
961.50	7196.40
961.67	7126.93
961.84	7149.38
962.01	7103.42
962.18	7110.22
962.34	7074.50
962.51	7068.77
962.68	7022.73
962.85	7085.15
963.02	6998.81
963.18	7040.43
963.35	6974.97
963.52	6971.61
963.69	6947.20
963.86	6998.97
964.02	6883.63
964.19	6973.50
964.36	6912.30
964.53	6867.82
964.69	6809.58
964.86	6884.94
965.03	6775.91
965.20	6825.31
965.37	6740.36
965.53	6782.54
965.70	6735.77
965.87	6758.30
966.04	6693.42
966.20	6675.97
966.37	6719.30
966.54	6620.51
966.71	6699.97
966.87	6652.95
967.04	6635.17
967.21	6595.61
967.38	6590.36
967.54	6576.03
967.71	6569.06
967.88	6575.04
968.05	6535.81
968.21	6520.65
968.38	6476.25
968.55	6489.44
968.72	6469.45
968.88	6428.00
969.05	6442.34
969.22	6440.86
969.39	6396.46
969.55	6430.54
969.72	6360.66
969.89	6376.23
970.05	6410.47
970.22	6381.47
970.39	6357.80
970.56	6380.49
970.72	6354.03
970.89	6369.18
971.06	6345.10
971.22	6299.55
971.39	6311.18
971.56	6320.44
971.73	6254.09
971.89	6288.33
972.06	6265.64
972.23	6261.71
972.39	6165.94
972.56	6231.81
972.73	6139.73
972.89	6193.96
973.06	6162.67
973.23	6159.31
973.39	6118.43
973.56	6152.34
973.73	6134.81
973.89	6112.12
974.06	6073.05
974.23	6089.68
974.39	6076.98
974.56	6066.66
974.73	6025.45
974.89	6025.37
975.06	6008.58
975.23	6053.06
975.39	5966.22
975.56	6018.00
975.73	5959.83
975.89	5945.25
976.06	5922.73
976.23	5892.33
976.39	5888.07
976.56	5898.31
976.73	5896.18
976.89	5869.72
977.06	5886.85
977.23	5822.13
977.39	5835.32
977.56	5857.44
977.72	5793.29
977.89	5824.83
978.06	5769.13
978.22	5794.60
978.39	5783.46
978.56	5761.18
978.72	5732.76
978.89	5728.33
979.05	5724.15
979.22	5727.68
979.39	5662.55
979.55	5679.59
979.72	5654.77
979.88	5671.07
980.05	5626.84
980.22	5665.17
980.38	5618.56
980.55	5617.82
980.71	5608.32
980.88	5634.86
981.05	5620.61
981.21	5579.73
981.38	5550.16
981.54	5603.90
981.71	5516.08
981.88	5580.47
982.04	5526.65
982.21	5532.55
982.37	5500.11
982.54	5512.72
982.70	5471.84
982.87	5505.92
983.04	5425.72
983.20	5495.93
983.37	5438.59
983.53	5445.30
983.70	5447.11
983.86	5433.10
984.03	5417.70
984.20	5390.25
984.36	5399.26
984.53	5387.71
984.69	5353.39
984.86	5339.05
985.02	5343.56
985.19	5311.45
985.35	5321.36
985.52	5311.12
985.68	5281.71
985.85	5283.02
986.02	5278.93
986.18	5286.05
986.35	5264.02
986.51	5268.93
986.68	5253.45
986.84	5219.54
987.01	5235.75
987.17	5235.67
987.34	5192.34
987.50	5216.67
987.67	5159.49
987.83	5208.23
988.00	5163.75
988.16	5161.21
988.33	5149.58
988.49	5162.77
988.66	5124.10
988.82	5119.43
988.99	5108.45
989.15	5098.62
989.32	5053.65
989.48	5077.49
989.65	5057.42
989.81	5039.40
989.98	5026.86
990.14	5024.90
990.31	5028.01
990.47	5026.62
990.64	5013.35
990.80	4984.02
990.97	4966.41
991.13	4984.02
991.30	4965.75
991.46	4962.97
991.63	4929.54
991.79	4969.11
991.95	4913.32
992.12	4941.50
992.28	4898.66
992.45	4905.46
992.61	4896.37
992.78	4892.60
992.94	4852.95
993.11	4884.16
993.27	4845.74
993.44	4836.32
993.60	4825.18
993.76	4841.32
993.93	4846.07
994.09	4846.72
994.26	4825.10
994.42	4809.70
994.59	4779.55
994.75	4807.48
994.91	4792.16
995.08	4747.85
995.24	4755.96
995.41	4764.97
995.57	4728.51
995.74	4731.46
995.90	4711.31
996.06	4730.32
996.23	4723.19
996.39	4722.94
996.56	4682.56
996.72	4704.02
996.88	4711.47
997.05	4714.34
997.21	4681.98
997.38	4691.00
997.54	4661.91
997.70	4658.64
997.87	4662.82
998.03	4646.60
998.20	4615.63
998.36	4621.12
998.52	4607.11
998.69	4642.75
998.85	4578.85
999.02	4605.14
999.18	4584.83
999.34	4572.30
999.51	4600.64
999.67	4598.43
999.83	4569.18
1000.00	4569.76
1000.16	4524.95
1000.33	4518.97
1000.49	4504.38
1000.65	4545.02
1000.82	4545.26
1000.98	4520.60
1001.14	4488.33
1001.31	4521.01
1001.47	4497.99
1001.63	4486.61
1001.80	4462.03
1001.96	4453.19
1002.12	4456.05
1002.29	4455.32
1002.45	4435.90
1002.61	4436.06
1002.78	4418.29
1002.94	4402.15
1003.10	4408.46
1003.27	4396.09
1003.43	4371.18
1003.59	4395.19
1003.76	4393.22
1003.92	4368.15
1004.08	4369.87
1004.25	4382.41
1004.41	4346.53
1004.57	4372.00
1004.74	4342.19
1004.90	4364.96
1005.06	4339.40
1005.23	4338.34
1005.39	4346.61
1005.55	4338.50
1005.71	4324.74
1005.88	4303.68
1006.04	4319.49
1006.20	4305.81
1006.37	4273.87
1006.53	4292.71
1006.69	4273.95
1006.85	4302.13
1007.02	4281.07
1007.18	4262.40
1007.34	4236.43
1007.51	4270.18
1007.67	4240.69
1007.83	4204.56
1007.99	4208.49
1008.16	4208.17
1008.32	4201.86
1008.48	4208.58
1008.64	4200.96
1008.81	4206.12
1008.97	4205.87
1009.13	4182.20
1009.29	4179.49
1009.46	4183.26
1009.62	4176.22
1009.78	4166.63
1009.95	4168.52
1010.11	4158.61
1010.27	4127.48
1010.43	4133.70
1010.59	4140.01
1010.76	4116.34
1010.92	4102.98
1011.08	4118.96
1011.24	4092.25
1011.41	4134.36
1011.57	4083.24
1011.73	4113.22
1011.89	4045.56
1012.06	4088.16
1012.22	4036.79
1012.38	4074.31
1012.54	4036.71
1012.70	4043.92
1012.87	4014.92
1013.03	4033.35
1013.19	4046.70
1013.35	4052.44
1013.51	3994.36
1013.68	4030.48
1013.84	3985.84
1014.00	4013.28
1014.16	3989.03
1014.32	3998.78
1014.49	3981.50
1014.65	4012.30
1014.81	3953.89
1014.97	3975.44
1015.13	3958.15
1015.30	3973.06
1015.46	3984.86
1015.62	3974.21
1015.78	3973.31
1015.94	3947.42
1016.10	3941.77
1016.27	3926.61
1016.43	3926.45
1016.59	3942.01
1016.75	3924.89
1016.91	3926.37
1017.07	3910.15
1017.24	3916.86
1017.40	3892.53
1017.56	3920.55
1017.72	3876.23
1017.88	3898.68
1018.04	3872.79
1018.21	3869.02
1018.37	3869.35
1018.53	3893.43
1018.69	3867.63
1018.85	3868.69
1019.01	3834.04
1019.17	3846.90
1019.34	3850.92
1019.50	3861.40
1019.66	3819.54
1019.82	3838.22
1019.98	3814.96
1020.14	3840.92
1020.30	3832.40
1020.46	3811.43
1020.63	3808.48
1020.79	3796.93
1020.95	3809.47
1021.11	3830.11
1021.27	3801.52
1021.43	3782.27
1021.59	3795.71
1021.75	3778.26
1021.91	3757.45
1022.07	3773.51
1022.24	3765.56
1022.40	3752.04
1022.56	3735.58
1022.72	3770.15
1022.88	3736.56
1023.04	3737.95
1023.20	3717.64
1023.36	3727.88
1023.52	3720.83
1023.68	3736.07
1023.84	3703.79
1024.01	3721.32
1024.17	3708.30
1024.33	3724.27
1024.49	3702.89
1024.65	3713.21
1024.81	3705.51
1024.97	3721.08
1025.13	3691.91
1025.29	3705.02
1025.45	3683.97
1025.61	3692.82
1025.77	3683.15
1025.93	3690.11
1026.09	3650.71
1026.25	3664.39
1026.41	3680.86
1026.57	3650.55
1026.73	3645.79
1026.90	3662.91
1027.06	3658.41
1027.22	3657.26
1027.38	3650.79
1027.54	3672.91
1027.70	3637.77
1027.86	3657.34
1028.02	3643.99
1028.18	3639.65
1028.34	3645.79
1028.50	3636.86
1028.66	3623.92
1028.82	3635.23
1028.98	3629.57
1029.14	3620.56
1029.30	3624.17
1029.46	3629.25
1029.62	3619.83
1029.78	3613.52
1029.94	3598.94
1030.10	3605.74
1030.26	3572.56
1030.42	3585.67
1030.58	3590.83
1030.74	3583.95
1030.90	3587.39
1031.06	3578.13
1031.22	3567.23
1031.38	3571.49
1031.54	3559.62
1031.70	3570.43
1031.86	3562.07
1032.02	3557.32
1032.18	3542.49
1032.34	3549.95
1032.50	3564.86
1032.66	3548.64
1032.82	3539.79
1032.98	3554.62
1033.14	3552.73
1033.30	3539.38
1033.45	3529.55
1033.61	3541.51
1033.77	3527.59
1033.93	3552.00
1034.09	3515.95
1034.25	3534.71
1034.41	3509.48
1034.57	3514.89
1034.73	3532.83
1034.89	3525.62
1035.05	3513.17
1035.21	3522.75
1035.37	3485.56
1035.53	3498.59
1035.69	3496.87
1035.85	3516.94
1036.01	3475.16
1036.16	3505.71
1036.32	3500.72
1036.48	3492.28
1036.64	3470.73
1036.80	3483.59
1036.96	3480.73
1037.12	3467.54
1037.28	3479.42
1037.44	3471.23
1037.60	3462.38
1037.76	3453.45
1037.91	3456.56
1038.07	3484.58
1038.23	3479.01
1038.39	3475.89
1038.55	3449.68
1038.71	3462.30
1038.87	3452.14
1039.03	3475.81
1039.19	3443.70
1039.35	3450.83
1039.50	3455.82
1039.66	3462.87
1039.82	3444.36
1039.98	3466.72
1040.14	3432.81
1040.30	3441.82
1040.46	3429.86
1040.62	3416.26
1040.77	3422.81
1040.93	3439.28
1041.09	3420.68
1041.25	3428.22
1041.41	3412.49
1041.57	3422.97
1041.73	3422.97
1041.88	3422.97

