SpectraSuite Data File
++++++++++++++++++++++++++++++++++++
Date: Tue Sep 20 12:14:05 EDT 2022
User: Laboratoire
Dark Spectrum Present: No
Reference Spectrum Present: No
Number of Sampled Component Spectra: 1
Spectrometers: FLMT00174
Integration Time (usec): 15000 (FLMT00174)
Spectra Averaged: 25 (FLMT00174)
Boxcar Smoothing: 0 (FLMT00174)
Correct for Electrical Dark: No (FLMT00174)
Strobe/Lamp Enabled: No (FLMT00174)
Correct for Detector Non-linearity: No (FLMT00174)
Correct for Stray Light: No (FLMT00174)
Number of Pixels in Processed Spectrum: 3648
>>>>>Begin Processed Spectral Data<<<<<
345.74	3170.26
345.96	3170.26
346.18	3170.26
346.39	3175.25
346.61	3213.51
346.83	3218.34
347.05	3217.69
347.27	3215.80
347.49	3225.22
347.71	3219.73
347.93	3229.07
348.15	3241.85
348.36	3231.04
348.58	3248.90
348.80	3232.92
349.02	3229.73
349.24	3238.08
349.46	3305.42
349.68	3324.84
349.90	3320.17
350.11	3319.18
350.33	3300.26
350.55	3319.27
350.77	3325.16
350.99	3310.66
351.21	3329.34
351.43	3313.94
351.65	3326.97
351.86	3324.43
352.08	3320.99
352.30	3317.87
352.52	3335.65
352.74	3307.72
352.96	3311.40
353.18	3313.94
353.39	3315.09
353.61	3323.85
353.83	3327.87
354.05	3340.32
354.27	3317.96
354.49	3342.86
354.70	3316.40
354.92	3314.27
355.14	3308.70
355.36	3315.66
355.58	3330.24
355.80	3329.42
356.02	3340.24
356.23	3334.18
356.45	3342.20
356.67	3333.93
356.89	3364.73
357.11	3301.90
357.33	3336.47
357.54	3312.63
357.76	3331.39
357.98	3313.70
358.20	3334.91
358.42	3312.30
358.63	3321.64
358.85	3331.31
359.07	3343.27
359.29	3321.56
359.51	3327.87
359.73	3308.29
359.94	3334.83
360.16	3315.01
360.38	3336.96
360.60	3312.71
360.82	3343.92
361.03	3346.22
361.25	3330.32
361.47	3346.63
361.69	3338.43
361.91	3322.30
362.12	3312.06
362.34	3315.74
362.56	3341.47
362.78	3342.94
363.00	3334.75
363.21	3337.78
363.43	3339.75
363.65	3293.79
363.87	3340.32
364.09	3336.30
364.30	3334.91
364.52	3337.12
364.74	3347.04
364.96	3331.39
365.17	3350.80
365.39	3349.99
365.61	3335.65
365.83	3341.55
366.05	3332.21
366.26	3318.61
366.48	3333.36
366.70	3342.94
366.92	3335.08
367.13	3338.27
367.35	3340.16
367.57	3322.87
367.79	3330.00
368.01	3330.90
368.22	3359.08
368.44	3337.53
368.66	3344.17
368.88	3346.38
369.09	3340.16
369.31	3340.89
369.53	3334.99
369.75	3345.48
369.96	3346.63
370.18	3328.36
370.40	3346.22
370.62	3352.85
370.83	3329.10
371.05	3359.65
371.27	3358.50
371.49	3330.57
371.70	3341.22
371.92	3328.03
372.14	3360.14
372.36	3353.84
372.57	3383.65
372.79	3353.02
373.01	3337.86
373.22	3361.62
373.44	3372.43
373.66	3340.24
373.88	3353.75
374.09	3349.17
374.31	3346.46
374.53	3340.73
374.75	3365.55
374.96	3352.52
375.18	3359.90
375.40	3353.75
375.61	3364.32
375.83	3338.52
376.05	3358.26
376.27	3374.89
376.48	3346.79
376.70	3366.70
376.92	3349.41
377.13	3348.67
377.35	3366.94
377.57	3346.79
377.79	3341.06
378.00	3357.60
378.22	3371.53
378.44	3345.48
378.65	3381.61
378.87	3371.78
379.09	3383.74
379.30	3348.76
379.52	3390.62
379.74	3354.57
379.96	3369.81
380.17	3352.93
380.39	3374.40
380.61	3389.22
380.82	3392.17
381.04	3370.55
381.26	3388.57
381.47	3382.34
381.69	3428.71
381.91	3375.30
382.12	3402.17
382.34	3390.29
382.56	3401.84
382.77	3383.57
382.99	3406.35
383.21	3404.71
383.42	3403.31
383.64	3387.26
383.86	3405.12
384.07	3389.88
384.29	3407.33
384.51	3401.92
384.72	3401.35
384.94	3409.13
385.16	3408.48
385.37	3421.01
385.59	3413.31
385.81	3416.59
386.02	3407.16
386.24	3429.94
386.46	3414.05
386.67	3421.09
386.89	3449.60
387.11	3442.47
387.32	3427.81
387.54	3424.12
387.76	3445.17
387.97	3456.89
388.19	3471.47
388.40	3438.54
388.62	3439.52
388.84	3453.53
389.05	3444.93
389.27	3461.80
389.49	3458.61
389.70	3441.73
389.92	3461.89
390.14	3458.12
390.35	3464.75
390.57	3475.24
390.78	3476.39
391.00	3453.61
391.22	3459.84
391.43	3463.36
391.65	3490.72
391.86	3492.11
392.08	3485.48
392.30	3485.89
392.51	3498.34
392.73	3516.53
392.95	3517.59
393.16	3491.30
393.38	3512.68
393.59	3512.76
393.81	3529.22
394.03	3506.94
394.24	3519.23
394.46	3537.17
394.67	3510.79
394.89	3524.64
395.11	3550.77
395.32	3546.18
395.54	3549.95
395.75	3553.31
395.97	3552.00
396.19	3538.97
396.40	3574.03
396.62	3561.66
396.83	3578.05
397.05	3583.04
397.26	3587.39
397.48	3576.00
397.70	3585.67
397.91	3581.82
398.13	3605.65
398.34	3587.47
398.56	3606.31
398.78	3621.46
398.99	3635.47
399.21	3624.17
399.42	3630.23
399.64	3610.98
399.85	3620.32
400.07	3646.53
400.29	3654.15
400.50	3632.20
400.72	3677.09
400.93	3641.62
401.15	3685.28
401.36	3669.63
401.58	3699.20
401.79	3672.75
402.01	3689.95
402.23	3684.13
402.44	3734.51
402.66	3716.00
402.87	3729.76
403.09	3718.13
403.30	3721.16
403.52	3706.09
403.73	3735.82
403.95	3732.22
404.16	3742.29
404.38	3745.24
404.60	3763.10
404.81	3754.75
405.03	3778.50
405.24	3790.79
405.46	3786.53
405.67	3786.37
405.89	3783.17
406.10	3809.30
406.32	3792.43
406.53	3818.64
406.75	3822.66
406.96	3832.49
407.18	3833.96
407.39	3837.07
407.61	3836.66
407.82	3855.26
408.04	3869.60
408.25	3877.95
408.47	3878.69
408.68	3906.13
408.90	3882.62
409.12	3906.30
409.33	3931.85
409.55	3902.45
409.76	3928.17
409.98	3925.87
410.19	3959.62
410.41	3949.96
410.62	3977.07
410.84	3962.41
411.05	3970.93
411.27	4001.65
411.48	3968.55
411.70	4006.07
411.91	3988.71
412.12	4034.17
412.34	3992.47
412.55	4030.57
412.77	4015.58
412.98	4056.29
413.20	4048.92
413.41	4066.45
413.63	4065.38
413.84	4064.73
414.06	4106.91
414.27	4110.36
414.49	4099.79
414.70	4111.91
414.92	4131.82
415.13	4126.90
415.35	4162.05
415.56	4157.21
415.78	4148.04
415.99	4163.60
416.21	4173.35
416.42	4207.10
416.63	4201.12
416.85	4217.26
417.06	4208.33
417.28	4197.93
417.49	4263.46
417.71	4261.82
417.92	4241.59
418.14	4253.14
418.35	4281.81
418.57	4298.52
418.78	4316.63
418.99	4293.77
419.21	4307.94
419.42	4328.01
419.64	4338.42
419.85	4337.68
420.07	4395.10
420.28	4379.38
420.50	4378.88
420.71	4392.57
420.92	4399.94
421.14	4449.25
421.35	4442.13
421.57	4440.49
421.78	4465.96
422.00	4460.23
422.21	4500.62
422.42	4500.70
422.64	4496.77
422.85	4523.39
423.07	4566.48
423.28	4557.39
423.50	4547.23
423.71	4587.29
423.92	4622.27
424.14	4587.70
424.35	4618.82
424.57	4645.53
424.78	4658.80
424.99	4665.76
425.21	4702.05
425.42	4706.15
425.64	4689.60
425.85	4748.42
426.06	4718.77
426.28	4738.92
426.49	4785.20
426.71	4772.18
426.92	4782.09
427.13	4824.20
427.35	4870.40
427.56	4887.27
427.78	4883.26
427.99	4882.85
428.20	4921.92
428.42	4929.71
428.63	4952.32
428.84	4918.40
429.06	4957.31
429.27	5009.50
429.49	4999.34
429.70	5066.92
429.91	5010.48
430.13	5062.41
430.34	5066.43
430.56	5092.56
430.77	5112.22
430.98	5082.89
431.20	5152.94
431.41	5201.68
431.62	5214.87
431.84	5161.05
432.05	5217.16
432.26	5224.94
432.48	5189.14
432.69	5270.16
432.91	5282.86
433.12	5334.14
433.33	5328.16
433.55	5373.13
433.76	5379.03
433.97	5361.75
434.19	5404.18
434.40	5443.01
434.61	5460.70
434.83	5460.21
435.04	5457.59
435.25	5520.67
435.47	5523.29
435.68	5493.72
435.89	5605.95
436.11	5599.31
436.32	5607.09
436.53	5611.52
436.75	5602.67
436.96	5635.27
437.17	5634.62
437.39	5683.44
437.60	5702.45
437.81	5740.37
438.03	5770.85
438.24	5758.23
438.45	5841.95
438.67	5805.75
438.88	5859.24
439.09	5940.99
439.31	5903.72
439.52	5935.67
439.73	5922.56
439.94	5875.87
440.16	5982.03
440.37	5965.73
440.58	6046.67
440.80	6058.87
441.01	6004.81
441.22	6167.99
441.44	6128.92
441.65	6117.86
441.86	6120.15
442.08	6205.35
442.29	6196.01
442.50	6276.86
442.71	6224.60
442.93	6257.86
443.14	6286.44
443.35	6323.31
443.57	6268.01
443.78	6369.43
443.99	6369.67
444.20	6344.85
444.42	6448.40
444.63	6420.30
444.84	6486.00
445.06	6527.70
445.27	6469.53
445.48	6506.81
445.69	6543.10
445.91	6575.70
446.12	6539.33
446.33	6609.04
446.54	6735.20
446.76	6617.48
446.97	6677.36
447.18	6699.72
447.39	6753.14
447.61	6787.05
447.82	6788.85
448.03	6794.26
448.25	6837.43
448.46	6913.04
448.67	6982.10
448.88	6887.89
449.10	7007.49
449.31	7018.14
449.52	6970.22
449.73	7070.41
449.95	7166.99
450.16	7076.96
450.37	7202.62
450.58	7333.53
450.79	7142.74
451.01	7221.88
451.22	7214.50
451.43	7276.19
451.64	7354.50
451.86	7353.27
452.07	7444.78
452.28	7450.76
452.49	7550.45
452.71	7462.80
452.92	7504.33
453.13	7542.91
453.34	7594.77
453.55	7690.53
453.77	7752.38
453.98	7715.44
454.19	7673.25
454.40	7779.33
454.62	7829.71
454.83	7750.09
455.04	7904.83
455.25	7810.22
455.46	8114.46
455.68	7961.11
455.89	7932.93
456.10	8043.85
456.31	8087.92
456.52	8135.19
456.74	8135.19
456.95	8294.85
457.16	8229.64
457.37	8337.53
457.58	8296.89
457.80	8284.44
458.01	8343.02
458.22	8643.00
458.43	8504.40
458.64	8561.08
458.86	8462.62
459.07	8543.55
459.28	8585.00
459.49	8727.95
459.70	8920.46
459.91	8785.79
460.13	8811.51
460.34	8905.31
460.55	8860.17
460.76	9030.40
460.97	9019.42
461.19	9041.13
461.40	9246.74
461.61	9152.13
461.82	9210.70
462.03	9302.37
462.24	9256.41
462.46	9306.71
462.67	9321.94
462.88	9419.43
463.09	9453.83
463.30	9628.07
463.51	9507.33
463.72	9705.41
463.94	9768.81
464.15	9726.79
464.36	9679.11
464.57	10002.36
464.78	9973.44
464.99	10001.21
465.20	9960.50
465.42	10173.98
465.63	10153.26
465.84	10093.45
466.05	10279.41
466.26	10367.15
466.47	10392.38
466.68	10366.57
466.90	10605.28
467.11	10551.30
467.32	10667.21
467.53	10807.38
467.74	10646.49
467.95	10776.17
468.16	10944.75
468.37	11036.50
468.59	11038.22
468.80	11248.02
469.01	11107.61
469.22	11271.61
469.43	11548.00
469.64	11391.29
469.85	11538.83
470.06	11612.47
470.28	11737.81
470.49	11592.90
470.70	11832.59
470.91	12070.97
471.12	11917.62
471.33	12223.10
471.54	12160.43
471.75	12192.79
471.96	12479.83
472.17	12409.95
472.39	12736.24
472.60	12511.29
472.81	12796.77
473.02	12749.10
473.23	13032.86
473.44	13105.69
473.65	13063.42
473.86	13194.41
474.07	13293.28
474.28	13312.86
474.49	13704.02
474.71	13630.05
474.92	13820.18
475.13	13757.60
475.34	13853.53
475.55	13956.42
475.76	14068.56
475.97	14410.57
476.18	14321.36
476.39	14542.63
476.60	14734.23
476.81	14735.38
477.02	14940.18
477.23	14907.90
477.44	14933.95
477.65	15204.69
477.87	15358.86
478.08	15468.64
478.29	15498.13
478.50	15833.91
478.71	15761.99
478.92	15916.40
479.13	16024.04
479.34	16132.67
479.55	16283.89
479.76	16268.90
479.97	16413.40
480.18	16833.07
480.39	16654.57
480.60	17043.69
480.81	17081.94
481.02	17179.43
481.23	17235.46
481.44	17539.79
481.65	17723.53
481.86	17954.95
482.07	17614.99
482.28	18413.29
482.49	18167.20
482.71	18264.03
482.92	18543.62
483.13	18735.06
483.34	18629.72
483.55	18811.00
483.76	18922.99
483.97	19162.84
484.18	19174.07
484.39	19418.27
484.60	19361.25
484.81	19778.14
485.02	19673.61
485.23	20035.69
485.44	20093.19
485.65	20366.23
485.86	20269.89
486.07	20613.30
486.28	20624.52
486.49	20870.03
486.70	20999.05
486.91	21253.82
487.12	21175.91
487.33	21153.63
487.54	21663.99
487.75	21697.49
487.96	21876.24
488.17	21829.54
488.38	22057.28
488.59	22162.95
488.80	22322.70
489.01	22418.38
489.22	22769.97
489.43	22708.70
489.64	22630.14
489.85	23192.75
490.06	22821.74
490.26	23264.02
490.47	23179.48
490.68	23610.05
490.89	23863.51
491.10	23555.08
491.31	23954.76
491.52	24256.96
491.73	24190.44
491.94	24197.73
492.15	24563.09
492.36	24589.14
492.57	24643.54
492.78	24743.48
492.99	24841.21
493.20	25169.70
493.41	25176.09
493.62	25327.80
493.83	25365.65
494.04	25577.00
494.25	25763.04
494.46	25824.15
494.67	25729.70
494.88	26036.89
495.08	26178.94
495.29	26239.80
495.50	26580.34
495.71	26452.30
495.92	26738.12
496.13	26776.37
496.34	26758.43
496.55	26902.94
496.76	27352.26
496.97	26924.32
497.18	27405.92
497.39	27326.29
497.60	27840.82
497.81	27498.73
498.02	27847.38
498.22	27597.77
498.43	28160.39
498.64	28213.31
498.85	28192.75
499.06	28359.04
499.27	28671.40
499.48	28135.73
499.69	28539.76
499.90	28707.03
500.11	28943.21
500.32	29278.83
500.52	28979.50
500.73	29472.15
500.94	29460.85
501.15	29503.69
501.36	29643.28
501.57	29485.26
501.78	29727.17
501.99	30038.54
502.20	29989.14
502.41	30031.66
502.61	30057.05
502.82	30478.77
503.03	30210.73
503.24	30752.87
503.45	30518.91
503.66	30866.74
503.87	30807.35
504.08	31082.27
504.28	30935.14
504.49	31119.21
504.70	31305.50
504.91	31501.20
505.12	31282.97
505.33	31829.45
505.54	31739.58
505.75	31842.06
505.95	32078.32
506.16	31987.47
506.37	31916.36
506.58	32470.22
506.79	32020.65
507.00	32577.04
507.21	32355.78
507.41	32488.73
507.62	32620.87
507.83	33129.25
508.04	32670.18
508.25	33224.61
508.46	33003.51
508.67	33473.89
508.87	33252.21
509.08	33675.90
509.29	33453.57
509.50	33657.14
509.71	33802.71
509.92	33912.23
510.12	33717.92
510.33	33941.81
510.54	33851.78
510.75	34099.01
510.96	34383.68
511.17	34558.74
511.37	34558.82
511.58	34856.84
511.79	34595.19
512.00	34619.85
512.21	35050.00
512.42	34976.85
512.62	35089.98
512.83	35307.64
513.04	35217.61
513.25	35624.42
513.46	34979.06
513.66	35798.66
513.87	35535.37
514.08	36025.49
514.29	35835.03
514.50	35953.40
514.71	36312.29
514.91	36077.51
515.12	36057.68
515.33	36417.96
515.54	36253.14
515.75	36756.62
515.95	36506.85
516.16	36534.29
516.37	37101.90
516.58	37127.63
516.78	36887.69
516.99	37314.07
517.20	37289.82
517.41	37327.02
517.62	37565.07
517.82	37381.66
518.03	37804.60
518.24	38157.02
518.45	37554.42
518.66	37999.49
518.86	37772.24
519.07	38248.77
519.28	37556.22
519.49	38377.30
519.69	38446.19
519.90	38631.90
520.11	38749.86
520.32	38629.61
520.52	38953.43
520.73	38566.36
520.94	39048.78
521.15	39131.93
521.36	38692.19
521.56	39538.25
521.77	38973.17
521.98	39627.29
522.19	39137.01
522.39	39504.42
522.60	39386.37
522.81	39683.24
523.02	39501.96
523.22	39889.93
523.43	40145.02
523.64	39935.72
523.84	40087.84
524.05	40492.77
524.26	40459.51
524.47	40198.92
524.67	40398.89
524.88	40632.93
525.09	40888.84
525.30	40605.81
525.50	40650.13
525.71	40836.74
525.92	40905.47
526.13	41190.14
526.33	41032.28
526.54	40893.27
526.75	41160.40
526.95	41490.78
527.16	40821.18
527.37	41481.85
527.58	41604.08
527.78	41646.10
527.99	41909.22
528.20	42193.32
528.40	41816.74
528.61	41551.89
528.82	42066.75
529.03	41877.36
529.23	41890.30
529.44	42275.07
529.65	42318.08
529.85	42476.67
530.06	42396.72
530.27	42501.25
530.47	42192.09
530.68	43006.03
530.89	42246.07
531.09	42928.95
531.30	42803.45
531.51	42463.16
531.72	43101.55
531.92	43097.13
532.13	43395.88
532.34	43182.16
532.54	43216.81
532.75	43377.70
532.96	43426.03
533.16	43653.52
533.37	43827.43
533.58	43554.56
533.78	43948.18
533.99	44077.94
534.20	43516.39
534.40	43885.02
534.61	44020.60
534.82	44108.33
535.02	44225.31
535.23	44234.32
535.44	44518.17
535.64	44357.77
535.85	44501.62
536.06	44436.50
536.26	44364.82
536.47	44461.48
536.68	44991.91
536.88	44315.26
537.09	44957.09
537.29	44535.62
537.50	45268.38
537.71	44835.36
537.91	45049.41
538.12	45335.23
538.33	44990.19
538.53	45295.83
538.74	45401.34
538.95	45478.75
539.15	45195.07
539.36	45627.76
539.56	45859.10
539.77	45466.95
539.98	45558.38
540.18	45810.19
540.39	45508.24
540.60	45840.34
540.80	45995.90
541.01	45929.88
541.21	45987.55
541.42	46180.30
541.63	45945.93
541.83	46304.08
542.04	46291.88
542.25	46224.78
542.45	46393.05
542.66	46420.73
542.86	46652.56
543.07	45544.04
543.28	46623.81
543.48	46550.66
543.69	46796.58
543.89	46510.35
544.10	47198.55
544.31	47047.66
544.51	46861.05
544.72	47076.33
544.92	46812.31
545.13	47266.79
545.33	47113.68
545.54	46800.59
545.75	47073.05
545.95	46792.89
546.16	46984.83
546.36	47602.49
546.57	46813.13
546.78	46266.07
546.98	46957.96
547.19	46250.10
547.39	47226.81
547.60	47501.08
547.80	48063.61
548.01	48056.98
548.22	47538.27
548.42	47624.20
548.63	47896.99
548.83	47725.78
549.04	47985.14
549.24	47576.61
549.45	47884.05
549.65	48286.27
549.86	47544.00
550.07	47858.00
550.27	48348.69
550.48	48366.96
550.68	48273.82
550.89	48317.89
551.09	48377.86
551.30	48210.33
551.50	48460.84
551.71	48137.01
551.91	48152.50
552.12	48343.04
552.33	48585.52
552.53	48066.65
552.74	48734.28
552.94	48790.15
553.15	48513.35
553.35	48868.38
553.56	48466.57
553.76	48967.83
553.97	48543.90
554.17	48825.38
554.38	49416.50
554.58	48764.10
554.79	49269.05
554.99	48675.14
555.20	48763.94
555.40	49233.50
555.61	48911.80
555.81	48622.14
556.02	49560.27
556.22	49363.91
556.43	49245.29
556.63	49377.35
556.84	49412.98
557.04	50098.07
557.25	49260.86
557.45	49684.05
557.66	49642.68
557.86	49323.36
558.07	49951.60
558.27	49494.16
558.48	49548.80
558.68	49566.25
558.89	49702.32
559.09	49701.58
559.30	49397.99
559.50	49625.07
559.71	49288.87
559.91	50024.01
560.12	49786.37
560.32	49788.66
560.53	49957.25
560.73	49612.21
560.94	50026.88
561.14	49584.85
561.35	50140.26
561.55	49937.18
561.76	50188.51
561.96	49602.38
562.17	50165.65
562.37	50371.92
562.57	50096.43
562.78	50010.50
562.98	50287.14
563.19	50293.85
563.39	50441.88
563.60	50363.89
563.80	49794.31
564.01	50454.00
564.21	50075.13
564.42	50005.50
564.62	50136.16
564.82	50610.80
565.03	50232.17
565.23	50399.36
565.44	50642.66
565.64	50399.86
565.85	50776.19
566.05	50545.43
566.25	50760.05
566.46	50458.84
566.66	50703.36
566.87	50588.84
567.07	50501.03
567.28	50700.50
567.48	50887.85
567.68	50252.24
567.89	51291.95
568.09	50726.96
568.30	50660.52
568.50	51008.68
568.71	50980.41
568.91	51181.69
569.11	50753.09
569.32	50877.03
569.52	50972.88
569.73	50407.47
569.93	51008.92
570.13	50803.63
570.34	50610.55
570.54	50995.16
570.75	50707.46
570.95	50749.16
571.15	50608.42
571.36	51312.43
571.56	50686.49
571.77	50670.11
571.97	50322.85
572.17	51166.70
572.38	50956.90
572.58	51259.51
572.79	51080.27
572.99	51036.86
573.19	50952.48
573.40	50647.74
573.60	50873.51
573.81	50774.72
574.01	50981.72
574.21	50820.51
574.42	50967.88
574.62	50793.07
574.82	51328.57
575.03	50999.83
575.23	51603.57
575.43	51178.58
575.64	51227.97
575.84	51701.46
576.05	51090.84
576.25	51302.85
576.45	51107.31
576.66	51609.96
576.86	51005.32
577.06	51389.76
577.27	51286.95
577.47	51376.65
577.67	51363.71
577.88	50895.30
578.08	51475.61
578.28	51675.66
578.49	51404.75
578.69	51560.56
578.89	51405.16
579.10	51484.38
579.30	52062.81
579.50	51613.40
579.71	51253.61
579.91	51799.60
580.11	51453.58
580.32	51422.94
580.52	51425.72
580.72	51982.20
580.93	51207.16
581.13	51402.13
581.33	51877.18
581.54	51427.94
581.74	51522.06
581.94	51665.09
582.15	51982.20
582.35	51588.91
582.55	51747.42
582.76	51302.27
582.96	51847.11
583.16	51415.57
583.37	51833.76
583.57	51499.53
583.77	52038.15
583.97	50949.53
584.18	51947.22
584.38	51713.42
584.58	51484.05
584.79	51891.68
584.99	51637.32
585.19	51531.89
585.40	51406.47
585.60	51716.95
585.80	51420.56
586.00	51876.28
586.21	51866.04
586.41	51762.41
586.61	51980.89
586.82	51693.68
587.02	51512.23
587.22	51766.42
587.42	51071.59
587.63	51763.07
587.83	51206.76
588.03	51647.72
588.23	51258.69
588.44	51560.81
588.64	51387.55
588.84	51502.32
589.05	51719.98
589.25	51634.04
589.45	51670.33
589.65	51620.44
589.86	51905.77
590.06	51850.15
590.26	51602.34
590.46	52002.43
590.67	51278.52
590.87	51924.12
591.07	51924.28
591.27	51418.76
591.48	51906.51
591.68	51404.18
591.88	52324.45
592.08	51531.81
592.29	51922.07
592.49	51823.03
592.69	52059.28
592.89	51623.89
593.10	51768.06
593.30	51644.04
593.50	52310.77
593.70	51183.74
593.90	52152.34
594.11	51876.28
594.31	52015.05
594.51	52188.55
594.71	52160.54
594.92	52107.86
595.12	51794.77
595.32	51888.48
595.52	52102.45
595.72	51391.89
595.93	52241.96
596.13	51998.83
596.33	51660.26
596.53	52040.20
596.73	51937.63
596.94	51730.30
597.14	52021.76
597.34	51884.22
597.54	52146.77
597.74	51719.65
597.95	52040.28
598.15	52013.74
598.35	52088.94
598.55	52145.71
598.75	51899.62
598.96	52369.02
599.16	51840.31
599.36	52001.78
599.56	51816.48
599.76	51628.06
599.97	52174.71
600.17	51962.87
600.37	52243.44
600.57	51565.64
600.77	52486.65
600.97	52102.21
601.18	52753.63
601.38	52149.23
601.58	52378.11
601.78	52029.71
601.98	51795.59
602.18	51970.57
602.39	52467.40
602.59	52135.71
602.79	51828.85
602.99	51958.20
603.19	52030.12
603.39	51966.06
603.60	51999.24
603.80	52094.34
604.00	51892.66
604.20	52076.65
604.40	52207.56
604.60	51903.47
604.80	51764.95
605.01	52047.32
605.21	51729.40
605.41	51663.86
605.61	51392.38
605.81	51795.67
606.01	52214.68
606.21	51716.70
606.42	52076.00
606.62	51735.70
606.82	52199.86
607.02	51641.58
607.22	51830.48
607.42	52097.38
607.62	51479.63
607.82	51633.63
608.03	51858.58
608.23	51637.65
608.43	51548.68
608.63	52144.64
608.83	51948.94
609.03	51891.92
609.23	51901.18
609.43	51900.93
609.63	51743.24
609.84	51569.98
610.04	52169.22
610.24	52050.60
610.44	51972.04
610.64	51616.27
610.84	51823.60
611.04	52187.24
611.24	51989.41
611.44	51377.06
611.64	51796.82
611.85	51816.80
612.05	51629.54
612.25	51728.17
612.45	51365.76
612.65	51754.05
612.85	51787.31
613.05	51271.63
613.25	51813.77
613.45	51457.10
613.65	51560.64
613.85	51183.49
614.05	51706.21
614.25	51748.65
614.46	51547.13
614.66	51275.08
614.86	51079.78
615.06	51340.28
615.26	51645.76
615.46	50920.78
615.66	51593.17
615.86	51484.38
616.06	51015.56
616.26	51230.27
616.46	51899.30
616.66	51331.93
616.86	51800.17
617.06	51258.53
617.26	51723.50
617.46	51385.58
617.66	51164.40
617.86	50950.43
618.07	51247.06
618.27	51161.04
618.47	51034.97
618.67	51139.01
618.87	51188.98
619.07	50848.20
619.27	50831.81
619.47	50735.48
619.67	51126.72
619.87	50742.03
620.07	51170.30
620.27	51172.35
620.47	50903.74
620.67	51267.54
620.87	51140.32
621.07	51129.59
621.27	50948.30
621.47	50612.03
621.67	50952.15
621.87	50641.27
622.07	51080.03
622.27	50943.88
622.47	50634.23
622.67	50783.81
622.87	50590.89
623.07	51114.60
623.27	51374.61
623.47	50557.47
623.67	50950.84
623.87	51208.89
624.07	51078.31
624.27	50392.48
624.47	50775.70
624.67	50505.12
624.87	50627.43
625.07	50188.10
625.27	50743.83
625.47	50333.09
625.67	50351.44
625.87	50521.67
626.07	50483.74
626.27	50548.29
626.47	50418.29
626.67	50219.55
626.87	50061.37
627.07	50472.93
627.27	50407.64
627.47	50446.88
627.67	50359.39
627.87	50315.64
628.07	50563.94
628.27	50286.56
628.47	50073.00
628.67	50483.58
628.86	50449.50
629.06	49988.05
629.26	49837.24
629.46	50282.63
629.66	49975.35
629.86	49566.33
630.06	50165.57
630.26	49978.47
630.46	50213.82
630.66	49685.77
630.86	49762.36
631.06	49752.29
631.26	49457.13
631.46	50010.33
631.66	49950.29
631.86	49596.89
632.06	49850.34
632.26	49423.79
632.45	49330.08
632.65	49416.26
632.85	49481.22
633.05	49415.60
633.25	49657.59
633.45	49378.41
633.65	49559.37
633.85	50153.03
634.05	49256.52
634.25	49520.95
634.45	49455.58
634.65	49653.74
634.84	49195.32
635.04	49489.66
635.24	49239.39
635.44	49674.71
635.64	49339.58
635.84	49614.01
636.04	49299.44
636.24	49247.91
636.44	49273.72
636.64	48661.13
636.84	49533.40
637.03	48765.00
637.23	49108.24
637.43	48999.37
637.63	48830.78
637.83	49086.12
638.03	49319.10
638.23	48689.72
638.43	49270.36
638.62	49396.43
638.82	48316.50
639.02	49058.60
639.22	48699.63
639.42	48939.08
639.62	48684.80
639.82	48797.20
640.02	48875.02
640.21	48879.36
640.41	48310.35
640.61	48733.87
640.81	48490.82
641.01	48369.58
641.21	48201.89
641.41	48788.68
641.61	48216.56
641.80	48297.41
642.00	48621.15
642.20	48609.60
642.40	47954.83
642.60	48349.92
642.80	48516.46
642.99	48078.77
643.19	48462.80
643.39	47991.20
643.59	48290.28
643.79	48127.76
643.99	48443.55
644.19	48123.91
644.38	47672.62
644.58	47838.34
644.78	47652.05
644.98	47627.64
645.18	47851.94
645.38	48038.06
645.57	47460.61
645.77	47420.96
645.97	47237.46
646.17	47596.10
646.37	47466.10
646.56	47313.65
646.76	47462.25
646.96	47542.12
647.16	47515.41
647.36	47671.72
647.55	47473.55
647.75	47608.88
647.95	47346.74
648.15	47617.89
648.35	47295.95
648.55	47511.97
648.74	47245.98
648.94	47297.76
649.14	47644.93
649.34	47210.84
649.54	47316.93
649.73	47467.98
649.93	47157.76
650.13	47085.83
650.33	46879.56
650.52	47077.56
650.72	47299.64
650.92	46825.74
651.12	46649.94
651.32	46929.29
651.51	47071.09
651.71	47096.32
651.91	46912.82
652.11	46825.66
652.30	46789.61
652.50	47205.68
652.70	47075.10
652.90	46718.35
653.10	46969.75
653.29	46483.16
653.49	46920.03
653.69	46406.73
653.89	46562.13
654.08	46351.76
654.28	46856.87
654.48	46487.50
654.68	46611.52
654.87	46292.04
655.07	46101.58
655.27	46433.92
655.47	46031.95
655.66	45986.16
655.86	45718.12
656.06	46282.54
656.26	45583.12
656.45	45826.66
656.65	45818.63
656.85	45743.02
657.04	45305.57
657.24	45448.52
657.44	45287.47
657.64	45613.18
657.83	44808.74
658.03	45445.49
658.23	45397.90
658.43	45246.76
658.62	45425.67
658.82	45124.86
659.02	45060.80
659.21	45216.94
659.41	45046.87
659.61	45474.24
659.81	45195.31
660.00	44829.95
660.20	44968.97
660.40	44685.29
660.59	44806.28
660.79	44420.20
660.99	44878.61
661.19	44714.86
661.38	44719.69
661.58	44080.15
661.78	44614.84
661.97	44545.70
662.17	45192.77
662.37	44559.95
662.56	44693.07
662.76	44658.74
662.96	44643.10
663.15	44611.89
663.35	44556.10
663.55	44227.11
663.74	43855.69
663.94	44277.82
664.14	43897.80
664.33	44252.18
664.53	44007.24
664.73	44451.08
664.93	43710.45
665.12	43981.93
665.32	43703.65
665.52	43819.65
665.71	43577.50
665.91	43742.89
666.10	43441.92
666.30	43832.10
666.50	43417.59
666.69	43383.35
666.89	43663.43
667.09	43969.81
667.28	43420.62
667.48	43356.24
667.68	43470.10
667.87	43331.74
668.07	43088.03
668.27	43526.95
668.46	43527.53
668.66	43173.15
668.86	43575.12
669.05	43091.39
669.25	43352.96
669.44	42983.18
669.64	42958.19
669.84	42911.09
670.03	43357.22
670.23	42917.48
670.43	42705.80
670.62	42659.03
670.82	42642.23
671.01	42867.84
671.21	42493.47
671.41	42578.83
671.60	42806.72
671.80	42967.37
672.00	42604.96
672.19	42899.62
672.39	42713.91
672.58	42593.65
672.78	42342.98
672.98	42678.44
673.17	42573.50
673.37	41948.13
673.56	42211.99
673.76	42336.76
673.96	42565.64
674.15	42276.79
674.35	42451.77
674.54	42322.26
674.74	42294.65
674.94	42243.45
675.13	42431.95
675.33	41893.08
675.52	42211.01
675.72	42039.72
675.91	41916.02
676.11	42030.13
676.31	41460.80
676.50	41700.41
676.70	41676.49
676.89	41745.80
677.09	41871.05
677.28	41631.52
677.48	41159.26
677.68	41440.40
677.87	41248.06
678.07	41013.61
678.26	41116.00
678.46	41177.36
678.65	41170.73
678.85	41428.36
679.04	40982.31
679.24	41154.75
679.44	40937.01
679.63	41090.45
679.83	40814.54
680.02	40937.75
680.22	40739.01
680.41	40872.54
680.61	40886.88
680.80	40792.59
681.00	41002.05
681.19	40925.87
681.39	40765.80
681.59	40683.72
681.78	40404.62
681.98	40747.94
682.17	40160.91
682.37	40416.25
682.56	40131.34
682.76	40431.90
682.95	40249.79
683.15	40331.63
683.34	40264.79
683.54	40471.22
683.73	40583.86
683.93	40140.84
684.12	40502.35
684.32	40611.79
684.51	39840.36
684.71	40126.92
684.90	40073.10
685.10	39950.79
685.29	39844.05
685.49	40078.26
685.68	40028.20
685.88	39993.39
686.07	39757.55
686.27	40101.03
686.46	39934.57
686.66	39674.40
686.85	39689.39
687.05	39390.63
687.24	39304.94
687.44	39581.91
687.63	39523.01
687.83	39014.38
688.02	39300.93
688.22	39343.04
688.41	39158.15
688.61	39135.13
688.80	39341.48
689.00	39002.58
689.19	38843.41
689.39	39211.23
689.58	39115.96
689.77	38920.34
689.97	39074.01
690.16	38827.28
690.36	38415.06
690.55	38445.86
690.75	38833.09
690.94	38558.58
691.14	38618.55
691.33	38204.45
691.53	38564.07
691.72	38274.73
691.91	38253.27
692.11	38271.05
692.30	38433.16
692.50	38494.19
692.69	38053.64
692.89	38254.42
693.08	38155.21
693.28	38152.92
693.47	38230.09
693.66	38187.08
693.86	38056.17
694.05	37983.51
694.25	37988.59
694.44	37978.35
694.64	37854.65
694.83	37651.17
695.02	37603.25
695.22	37814.51
695.41	37557.62
695.61	37513.87
695.80	37578.83
695.99	37528.37
696.19	37520.43
696.38	37517.56
696.58	37186.85
696.77	37759.22
696.96	37500.11
697.16	37293.84
697.35	37241.90
697.55	37273.36
697.74	37026.05
697.93	37388.95
698.13	36981.81
698.32	37141.80
698.52	36966.08
698.71	36600.97
698.90	37266.89
699.10	36908.08
699.29	36927.42
699.49	37202.25
699.68	36816.25
699.87	36692.47
700.07	36824.85
700.26	36719.51
700.45	36668.31
700.65	36565.25
700.84	37019.17
701.04	36672.98
701.23	36924.14
701.42	36578.36
701.62	36370.20
701.81	36442.54
702.00	36228.49
702.20	35939.80
702.39	36034.34
702.58	36037.61
702.78	35866.49
702.97	35724.03
703.17	35774.98
703.36	35796.04
703.55	35649.16
703.75	35520.22
703.94	35702.24
704.13	35461.81
704.33	35499.08
704.52	35730.91
704.71	35615.08
704.91	35401.76
705.10	35212.77
705.29	35303.29
705.49	35421.59
705.68	35349.66
705.87	35366.95
706.07	35056.23
706.26	35369.49
706.45	35008.96
706.65	34895.83
706.84	35242.43
707.03	35418.31
707.23	34749.77
707.42	34687.35
707.61	34972.43
707.80	34563.00
708.00	34640.49
708.19	34608.30
708.38	34900.42
708.58	34333.62
708.77	34760.91
708.96	34265.22
709.16	34255.96
709.35	34887.97
709.54	34423.73
709.74	34241.22
709.93	34089.10
710.12	34524.74
710.31	34644.42
710.51	34289.06
710.70	34263.17
710.89	34319.04
711.09	33884.30
711.28	33865.78
711.47	34119.24
711.66	33935.01
711.86	33806.80
712.05	33940.41
712.24	34022.17
712.43	33643.29
712.63	33289.24
712.82	33673.85
713.01	33517.30
713.21	33332.58
713.40	33375.01
713.59	33556.13
713.78	33024.81
713.98	33281.62
714.17	33257.37
714.36	33306.61
714.55	33067.32
714.75	33299.07
714.94	33356.25
715.13	33497.23
715.32	33046.43
715.52	33207.98
715.71	32959.27
715.90	32968.28
716.09	32795.02
716.29	33064.62
716.48	32812.39
716.67	32286.47
716.86	32515.60
717.06	32528.30
717.25	32515.19
717.44	32651.26
717.63	32620.21
717.82	32278.61
718.02	32362.08
718.21	32550.09
718.40	32561.31
718.59	32442.94
718.79	32318.09
718.98	32449.57
719.17	32601.37
719.36	32602.52
719.55	32297.61
719.75	32111.99
719.94	31926.11
720.13	32040.39
720.32	31907.27
720.51	31728.11
720.71	31683.80
720.90	31485.96
721.09	31785.62
721.28	31522.83
721.47	31925.54
721.67	31554.28
721.86	31611.95
722.05	31436.81
722.24	31089.80
722.43	31444.02
722.63	31089.72
722.82	31215.55
723.01	31213.67
723.20	30981.34
723.39	30971.84
723.58	31291.82
723.78	30790.23
723.97	31281.49
724.16	30916.55
724.35	31060.80
724.54	30774.83
724.73	30968.32
724.93	30676.03
725.12	31019.11
725.31	30474.27
725.50	30612.46
725.69	30720.51
725.88	30585.18
726.08	30292.90
726.27	30553.89
726.46	30093.02
726.65	30758.52
726.84	30208.28
727.03	30256.94
727.23	30474.92
727.42	30264.64
727.61	30175.18
727.80	30168.55
727.99	30390.63
728.18	30364.82
728.37	30006.76
728.56	29891.09
728.76	29656.64
728.95	29735.52
729.14	29679.41
729.33	29666.38
729.52	29733.15
729.71	29742.08
729.90	29810.48
730.09	29612.32
730.29	29861.76
730.48	29491.41
730.67	29763.54
730.86	29407.19
731.05	29661.22
731.24	29335.02
731.43	29364.43
731.62	29156.03
731.81	29150.95
732.01	29543.67
732.20	29061.00
732.39	29208.21
732.58	29166.93
732.77	28683.36
732.96	28987.03
733.15	29090.09
733.34	28832.12
733.53	28937.72
733.72	28954.76
733.92	28915.11
734.11	28954.76
734.30	28790.26
734.49	28943.45
734.68	28675.09
734.87	28508.87
735.06	28548.11
735.25	28673.45
735.44	28531.89
735.63	28583.58
735.82	28697.37
736.01	28506.17
736.20	28472.50
736.40	28651.08
736.59	28528.61
736.78	28614.14
736.97	28130.08
737.16	28223.79
737.35	28211.51
737.54	28280.65
737.73	28146.95
737.92	28378.95
738.11	28328.90
738.30	28213.80
738.49	28210.36
738.68	28086.83
738.87	28152.85
739.06	27889.48
739.25	27873.35
739.44	27807.98
739.63	27679.44
739.82	27504.96
740.01	27628.57
740.20	27483.09
740.39	27646.43
740.59	27557.22
740.78	27713.93
740.97	27604.08
741.16	27481.94
741.35	27663.55
741.54	27548.37
741.73	27547.64
741.92	27378.23
742.11	27499.47
742.30	27443.19
742.49	27188.51
742.68	27309.25
742.87	27228.24
743.06	26968.47
743.25	27115.02
743.44	27029.75
743.63	27181.95
743.82	27035.81
744.01	27012.63
744.20	26801.19
744.39	27113.71
744.58	26907.93
744.77	26743.11
744.96	26527.75
745.15	26696.09
745.34	26499.32
745.53	26610.90
745.72	26362.93
745.91	26475.65
746.10	26301.90
746.29	26547.49
746.48	26455.41
746.67	26475.32
746.86	26530.04
747.04	26456.48
747.23	26379.31
747.42	26562.73
747.61	26197.53
747.80	26578.54
747.99	26020.59
748.18	26237.35
748.37	26109.14
748.56	25876.58
748.75	26009.20
748.94	25992.90
749.13	26094.97
749.32	25829.96
749.51	25965.95
749.70	26015.02
749.89	25879.20
750.08	25946.04
750.27	25700.37
750.46	25765.00
750.65	26045.33
750.84	25695.86
751.02	25810.55
751.21	25655.56
751.40	25710.86
751.59	25758.45
751.78	25685.54
751.97	25662.69
752.16	25572.41
752.35	25743.13
752.54	25392.68
752.73	25644.01
752.92	25411.61
753.11	25351.64
753.30	25526.54
753.49	25567.17
753.67	25334.93
753.86	25134.15
754.05	25333.78
754.24	25175.68
754.43	25245.80
754.62	25211.48
754.81	24969.00
755.00	24971.21
755.19	24909.69
755.38	24635.43
755.56	24856.03
755.75	25143.32
755.94	24788.12
756.13	24850.54
756.32	24897.48
756.51	24814.91
756.70	24804.67
756.89	24692.93
757.08	24724.96
757.26	24643.86
757.45	24726.85
757.64	24524.10
757.83	24844.32
758.02	24769.77
758.21	24717.10
758.40	24798.28
758.59	24650.25
758.77	24541.14
758.96	24545.23
759.15	24614.95
759.34	24359.52
759.53	24446.85
759.72	24400.65
759.91	24214.04
760.09	24307.75
760.28	24305.70
760.47	24087.14
760.66	24248.69
760.85	23961.40
761.04	24136.13
761.23	24035.13
761.41	23983.43
761.60	24114.09
761.79	24028.57
761.98	23941.66
762.17	24201.58
762.36	23996.46
762.54	24191.92
762.73	24102.05
762.92	23859.33
763.11	24054.70
763.30	24150.06
763.49	23939.20
763.67	23833.36
763.86	23763.65
764.05	23886.85
764.24	23751.85
764.43	23973.93
764.61	23638.72
764.80	23743.25
764.99	23955.75
765.18	23651.75
765.37	23810.42
765.55	23734.73
765.74	23641.34
765.93	23492.82
766.12	23660.76
766.31	23555.90
766.49	23653.22
766.68	23629.87
766.87	23564.67
767.06	23455.47
767.25	23552.54
767.43	23512.48
767.62	23409.02
767.81	23569.01
768.00	23294.17
768.19	23279.75
768.37	23365.60
768.56	23239.12
768.75	23297.61
768.94	23361.83
769.12	23128.28
769.31	23055.13
769.50	22989.51
769.69	23217.58
769.88	22881.95
770.06	23364.95
770.25	23122.63
770.44	23009.42
770.63	23117.64
770.81	22967.97
771.00	22912.59
771.19	22967.40
771.38	22978.21
771.56	23173.09
771.75	22753.34
771.94	22911.77
772.13	22862.95
772.31	22771.45
772.50	23051.69
772.69	22874.50
772.88	23138.61
773.06	22825.84
773.25	22956.17
773.44	22905.14
773.62	22802.82
773.81	22797.01
774.00	22670.69
774.19	22760.22
774.37	22635.87
774.56	22874.66
774.75	22498.08
774.94	22673.47
775.12	22434.76
775.31	22579.10
775.50	22596.55
775.68	22545.19
775.87	22550.02
776.06	22431.57
776.25	22564.19
776.43	22385.04
776.62	22581.72
776.81	22257.08
776.99	22395.28
777.18	22380.45
777.37	22126.01
777.55	22247.99
777.74	22226.11
777.93	22204.16
778.12	22297.14
778.30	22255.52
778.49	22234.80
778.68	22347.93
778.86	22213.74
779.05	22359.64
779.24	22326.46
779.42	22234.80
779.61	22170.41
779.80	22243.89
779.98	22247.08
780.17	22283.21
780.36	21932.60
780.54	22076.28
780.73	21707.73
780.92	22007.06
781.10	21917.44
781.29	21843.06
781.48	21779.90
781.66	21825.45
781.85	21865.59
782.04	21743.53
782.22	21872.47
782.41	21693.31
782.60	21782.03
782.78	21834.30
782.97	21887.22
783.16	21609.67
783.34	21563.80
783.53	21647.44
783.71	21499.90
783.90	21626.55
784.09	21529.39
784.27	21662.35
784.46	21655.22
784.65	21670.05
784.83	21610.90
785.02	21634.66
785.20	21858.63
785.39	21485.16
785.58	21767.37
785.76	21649.57
785.95	21638.10
786.14	21606.73
786.32	21642.93
786.51	21548.81
786.69	21601.48
786.88	21479.26
787.07	21418.39
787.25	21509.24
787.44	21434.70
787.62	21377.27
787.81	21564.62
788.00	21588.21
788.18	21490.65
788.37	21596.65
788.55	21998.30
788.74	21763.60
788.93	22000.59
789.11	22106.68
789.30	22058.10
789.48	21954.14
789.67	22040.40
789.86	21985.85
790.04	22012.63
790.23	21869.44
790.41	21779.33
790.60	21852.48
790.78	21780.07
790.97	21554.95
791.16	21711.25
791.34	21892.79
791.53	21622.29
791.71	21894.26
791.90	21621.31
792.08	21698.97
792.27	21624.91
792.46	21562.90
792.64	21592.31
792.83	21528.08
793.01	21671.36
793.20	21630.24
793.38	21597.14
793.57	21702.98
793.75	21624.34
793.94	21709.12
794.12	21914.74
794.31	21712.81
794.50	21894.51
794.68	21905.65
794.87	21848.96
795.05	22024.92
795.24	21905.73
795.42	21791.21
795.61	22021.07
795.79	22054.17
795.98	21708.47
796.16	21962.42
796.35	21935.88
796.53	21802.27
796.72	22014.68
796.90	21972.41
797.09	22002.72
797.27	21950.37
797.46	21920.72
797.64	22015.50
797.83	21853.46
798.01	21965.94
798.20	22075.71
798.38	21931.62
798.57	22208.75
798.75	22008.86
798.94	21787.93
799.12	22334.66
799.31	22028.85
799.49	22072.11
799.68	21984.45
799.86	22092.83
800.05	21993.87
800.23	22065.96
800.42	21971.59
800.60	22269.20
800.79	21957.34
800.97	22125.44
801.16	22289.35
801.34	22050.81
801.53	21949.23
801.71	22160.66
801.90	21884.35
802.08	22104.14
802.27	21927.93
802.45	21723.87
802.64	21850.52
802.82	21896.88
803.00	21572.16
803.19	21700.36
803.37	21901.47
803.56	21633.19
803.74	21669.23
803.93	21782.28
804.11	21665.79
804.30	21573.38
804.48	21766.79
804.67	21809.47
804.85	21706.34
805.03	21879.35
805.22	21656.37
805.40	21569.78
805.59	21747.87
805.77	21805.21
805.96	21666.69
806.14	21615.65
806.32	21730.67
806.51	21705.44
806.69	21501.38
806.88	21434.45
807.06	21415.04
807.25	21464.27
807.43	21509.57
807.61	21596.65
807.80	21537.42
807.98	21724.44
808.17	21531.52
808.35	21456.16
808.53	21629.25
808.72	21444.04
808.90	21460.34
809.09	21500.89
809.27	21532.75
809.45	21344.67
809.64	21518.17
809.82	21324.52
810.01	21400.04
810.19	21348.03
810.37	21232.36
810.56	21141.51
810.74	21243.74
810.93	21060.16
811.11	21171.16
811.29	21125.62
811.48	21206.55
811.66	21233.59
811.84	21110.87
812.03	21075.81
812.21	21093.34
812.40	21146.34
812.58	21191.56
812.76	21016.75
812.95	21139.38
813.13	20825.30
813.31	20937.04
813.50	21010.68
813.68	20895.59
813.86	21043.62
814.05	21133.73
814.23	20839.56
814.42	21085.64
814.60	20932.21
814.78	21145.77
814.97	21109.97
815.15	21086.21
815.33	21118.82
815.52	20919.02
815.70	20854.88
815.88	20802.12
816.07	20516.88
816.25	20630.75
816.43	20589.54
816.62	20378.03
816.80	20521.55
816.98	20476.00
817.17	20513.19
817.35	20474.20
817.53	20521.55
817.72	20638.77
817.90	20412.43
818.08	20497.22
818.26	20607.32
818.45	20439.14
818.63	20507.38
818.81	20547.52
819.00	20314.79
819.18	20560.46
819.36	20451.75
819.55	20502.22
819.73	20301.43
819.91	20491.16
820.09	20297.25
820.28	20422.84
820.46	20100.65
820.64	20395.72
820.83	20068.70
821.01	20139.56
821.19	20209.52
821.38	20256.05
821.56	20160.37
821.74	20277.43
821.92	20086.97
822.11	20347.72
822.29	20011.28
822.47	20023.56
822.65	20066.16
822.84	20063.38
823.02	19882.17
823.20	20214.76
823.39	19958.11
823.57	20112.69
823.75	20108.10
823.93	19967.12
824.12	20065.34
824.30	19904.95
824.48	19866.85
824.66	20021.11
824.85	19619.62
825.03	19845.72
825.21	19821.80
825.39	19747.25
825.58	19806.81
825.76	19712.68
825.94	19786.82
826.12	19804.43
826.31	19724.31
826.49	19730.46
826.67	19606.35
826.85	19618.89
827.03	19633.47
827.22	19699.66
827.40	19579.15
827.58	19628.88
827.76	19735.54
827.95	19545.98
828.13	19640.68
828.31	19667.05
828.49	19725.71
828.67	19625.60
828.86	19634.20
829.04	19695.56
829.22	19579.97
829.40	19554.82
829.58	19522.96
829.77	19548.76
829.95	19504.28
830.13	19462.67
830.31	19310.54
830.49	19346.75
830.68	19309.23
830.86	19158.58
831.04	19138.02
831.22	19133.35
831.40	19107.30
831.59	19270.57
831.77	19139.01
831.95	19296.04
832.13	19053.81
832.31	19153.42
832.50	19088.54
832.68	18983.20
832.86	18991.31
833.04	19047.42
833.22	18881.21
833.40	19220.51
833.59	18978.69
833.77	19199.05
833.95	18773.73
834.13	19364.12
834.31	18999.58
834.49	19068.96
834.67	18986.06
834.86	18986.88
835.04	18972.71
835.22	18963.94
835.40	18910.45
835.58	18889.15
835.76	18951.00
835.95	18979.43
836.13	18887.02
836.31	18780.86
836.49	18917.09
836.67	18831.32
836.85	18732.93
837.03	18726.46
837.21	18754.56
837.40	18664.53
837.58	18520.93
837.76	18660.11
837.94	18604.24
838.12	18729.98
838.30	18519.13
838.48	18583.76
838.66	18477.84
838.85	18426.72
839.03	18416.73
839.21	18375.69
839.39	18275.66
839.57	18328.50
839.75	18233.31
839.93	18364.22
840.11	18391.41
840.29	18322.85
840.47	18383.96
840.66	18339.15
840.84	18315.31
841.02	18242.57
841.20	18215.54
841.38	18222.25
841.56	18184.90
841.74	18329.40
841.92	18072.75
842.10	18059.32
842.28	18090.04
842.46	17986.41
842.65	17944.14
842.83	18107.65
843.01	18129.19
843.19	17872.79
843.37	17968.71
843.55	17882.13
843.73	18038.67
843.91	18108.71
844.09	17998.70
844.27	18193.58
844.45	17977.48
844.63	18029.50
844.81	17986.57
844.99	18055.38
845.17	17902.61
845.35	18046.05
845.54	17886.63
845.72	17867.63
845.90	17868.04
846.08	17816.75
846.26	17671.02
846.44	17845.67
846.62	17615.32
846.80	17641.94
846.98	17655.70
847.16	17664.55
847.34	17676.59
847.52	17664.63
847.70	17579.85
847.88	17675.85
848.06	17584.92
848.24	17618.84
848.42	17655.95
848.60	17559.78
848.78	17581.81
848.96	17640.14
849.14	17591.31
849.32	17788.98
849.50	17547.32
849.68	17735.49
849.86	17657.01
850.04	17572.15
850.22	17568.62
850.40	17390.94
850.58	17552.65
850.76	17781.20
850.94	17237.43
851.12	17450.91
851.30	17275.44
851.48	17472.04
851.66	17293.38
851.84	17300.50
852.02	17363.42
852.20	17459.51
852.38	17350.96
852.56	17484.16
852.74	17431.33
852.92	17269.87
853.10	17156.98
853.28	17253.97
853.46	16869.61
853.64	17096.44
853.82	16919.25
854.00	17021.49
854.18	16917.78
854.36	16837.42
854.54	16923.76
854.72	16823.74
854.90	16739.61
855.07	16898.86
855.25	16826.77
855.43	16860.84
855.61	16798.34
855.79	16801.70
855.97	16815.46
856.15	16777.12
856.33	16693.24
856.51	16835.12
856.69	16660.64
856.87	16782.37
857.05	16666.53
857.23	16604.36
857.41	16502.53
857.59	16478.86
857.77	16457.97
857.94	16475.01
858.12	16480.00
858.30	16415.12
858.48	16392.84
858.66	16349.51
858.84	16468.62
859.02	16355.90
859.20	16311.42
859.38	16584.94
859.56	16492.46
859.74	16433.07
859.92	16517.28
860.09	16443.96
860.27	16507.94
860.45	16403.90
860.63	16418.16
860.81	16463.05
860.99	16310.68
861.17	16129.72
861.35	15901.08
861.53	15837.93
861.70	15839.73
861.88	16096.71
862.06	16084.91
862.24	15826.62
862.42	15782.06
862.60	15930.00
862.78	15937.87
862.96	16032.56
863.14	15879.05
863.31	15843.09
863.49	15810.07
863.67	15712.43
863.85	15749.21
864.03	15867.83
864.21	15832.76
864.39	15877.33
864.56	15713.41
864.74	15815.89
864.92	15713.49
865.10	15723.08
865.28	15689.08
865.46	15844.64
865.64	15507.22
865.81	15714.80
865.99	15476.50
866.17	15678.10
866.35	15553.34
866.53	15593.81
866.71	15624.85
866.88	15678.92
867.06	15419.57
867.24	15516.80
867.42	15406.62
867.60	15527.86
867.78	15392.37
867.95	15573.49
868.13	15411.62
868.31	15539.82
868.49	15485.35
868.67	15426.45
868.84	15284.24
869.02	15408.59
869.20	15150.71
869.38	15383.11
869.56	15203.71
869.73	15175.12
869.91	15255.89
870.09	15213.46
870.27	15018.08
870.45	15124.99
870.62	14973.76
870.80	15108.03
870.98	15095.91
871.16	15089.84
871.34	15122.04
871.51	15107.13
871.69	14947.30
871.87	15027.91
872.05	14988.26
872.23	14948.86
872.40	14837.94
872.58	14973.52
872.76	14850.39
872.94	14870.14
873.11	14890.21
873.29	14827.87
873.47	14827.38
873.65	14766.35
873.83	14707.45
874.00	14722.03
874.18	14704.17
874.36	14682.13
874.54	14757.50
874.71	14669.35
874.89	14543.94
875.07	14656.33
875.25	14559.67
875.42	14601.28
875.60	14551.88
875.78	14625.20
875.96	14417.62
876.13	14458.58
876.31	14226.58
876.49	14221.09
876.66	14132.95
876.84	14355.20
877.02	14170.71
877.20	14226.91
877.37	14240.92
877.55	14229.94
877.73	14198.32
877.91	14183.41
878.08	14247.72
878.26	14287.69
878.44	14289.82
878.61	14377.15
878.79	14288.84
878.97	14260.01
879.15	14362.57
879.32	14342.83
879.50	14295.40
879.68	14375.27
879.85	14202.58
880.03	14271.48
880.21	14144.09
880.38	14251.98
880.56	14129.76
880.74	14275.82
880.92	14025.88
881.09	14140.41
881.27	14048.66
881.45	14053.08
881.62	13995.57
881.80	14004.67
881.98	13957.23
882.15	14170.22
882.33	14045.71
882.51	14147.86
882.68	14043.82
882.86	14236.50
883.04	14059.06
883.21	14107.15
883.39	14158.18
883.57	13988.36
883.74	14015.15
883.92	14028.75
884.10	13992.38
884.27	13969.36
884.45	13901.12
884.63	14058.90
884.80	13964.85
884.98	14031.37
885.16	13981.32
885.33	13978.12
885.51	14002.86
885.69	13949.04
885.86	13869.66
886.04	14000.90
886.21	13824.20
886.39	13971.16
886.57	13821.58
886.74	13994.43
886.92	13957.81
887.10	14009.83
887.27	13982.71
887.45	14029.49
887.62	14041.28
887.80	14001.55
887.98	14134.34
888.15	14080.44
888.33	13991.89
888.51	14101.99
888.68	13987.71
888.86	14051.03
889.03	13893.67
889.21	13962.40
889.39	13978.12
889.56	13933.07
889.74	13914.72
889.91	13913.57
890.09	13920.13
890.27	13917.59
890.44	13906.61
890.62	13925.86
890.79	13931.68
890.97	14009.42
891.14	13923.81
891.32	13988.53
891.50	13965.02
891.67	14042.84
891.85	13999.42
892.02	13972.72
892.20	14093.30
892.38	14021.30
892.55	13999.26
892.73	14042.68
892.90	13935.94
893.08	14032.76
893.25	13969.77
893.43	14035.39
893.60	13939.95
893.78	14012.53
893.96	13962.07
894.13	14036.86
894.31	14082.73
894.48	14040.87
894.66	13986.97
894.83	14079.13
895.01	14058.16
895.18	14178.17
895.36	14124.92
895.53	14233.96
895.71	14115.99
895.89	14216.67
896.06	14093.30
896.24	14189.88
896.41	14148.84
896.59	14180.46
896.76	13951.42
896.94	14043.41
897.11	13979.76
897.29	13998.28
897.46	13846.15
897.64	13909.15
897.81	13884.82
897.99	13748.67
898.16	13938.39
898.34	13918.81
898.51	13880.56
898.69	13827.07
898.86	13857.62
899.04	13925.86
899.21	13888.10
899.39	14013.84
899.56	13934.95
899.74	14123.78
899.91	13938.23
900.09	13943.39
900.26	13920.94
900.44	13834.93
900.61	13789.96
900.79	13941.01
900.96	13790.69
901.14	13752.52
901.31	13722.21
901.49	13724.67
901.66	13703.78
901.84	13687.31
902.01	13557.96
902.19	13654.30
902.36	13564.93
902.54	13585.65
902.71	13549.93
902.88	13671.83
903.06	13446.88
903.23	13705.09
903.41	13582.54
903.58	13577.46
903.76	13495.38
903.93	13649.22
904.11	13706.97
904.28	13587.94
904.45	13558.29
904.63	13483.09
904.80	13349.15
904.98	13495.21
905.15	13348.09
905.33	13414.85
905.50	13333.18
905.68	13396.83
905.85	13286.16
906.02	13256.09
906.20	13326.71
906.37	13143.54
906.55	13118.80
906.72	13236.35
906.90	13107.66
907.07	13025.25
907.24	13092.91
907.42	12977.08
907.59	13024.26
907.77	12991.99
907.94	12931.94
908.11	13025.57
908.29	12951.85
908.46	13004.36
908.64	12953.24
908.81	13030.98
908.98	12956.27
909.16	13019.35
909.33	12946.93
909.51	12935.22
909.68	12907.69
909.85	12924.24
910.03	12831.75
910.20	12826.10
910.37	12826.51
910.55	12829.87
910.72	12802.26
910.90	12705.43
911.07	12722.72
911.24	12620.57
911.42	12704.94
911.59	12590.09
911.76	12605.58
911.94	12503.75
912.11	12464.27
912.29	12429.86
912.46	12371.12
912.63	12369.73
912.81	12251.03
912.98	12400.94
913.15	12193.93
913.33	12257.09
913.50	12235.63
913.67	12153.22
913.85	12173.37
914.02	12171.16
914.19	12121.93
914.37	12025.43
914.54	12110.29
914.71	12058.11
914.89	12058.28
915.06	12060.57
915.23	12012.07
915.41	11993.48
915.58	11929.42
915.75	11900.34
915.93	11876.09
916.10	11806.70
916.27	11785.90
916.45	11771.72
916.62	11699.55
916.79	11750.26
916.97	11560.70
917.14	11587.57
917.31	11468.79
917.49	11577.66
917.66	11500.90
917.83	11453.31
918.00	11480.09
918.18	11485.50
918.35	11465.92
918.52	11520.64
918.70	11424.14
918.87	11441.84
919.04	11426.03
919.21	11484.11
919.39	11348.29
919.56	11379.66
919.73	11266.70
919.91	11300.86
920.08	11187.40
920.25	11083.12
920.42	11166.02
920.60	11024.22
920.77	10947.95
920.94	11051.41
921.11	10934.19
921.29	11000.79
921.46	10890.93
921.63	11039.94
921.81	10958.84
921.98	10936.48
922.15	10893.06
922.32	10943.44
922.50	10843.99
922.67	10884.38
922.84	10788.95
923.01	10778.05
923.19	10725.62
923.36	10754.79
923.53	10603.56
923.70	10640.51
923.87	10578.74
924.05	10600.04
924.22	10470.04
924.39	10539.34
924.56	10368.29
924.74	10440.63
924.91	10455.54
925.08	10398.19
925.25	10382.46
925.43	10390.82
925.60	10317.99
925.77	10436.94
925.94	10325.94
926.11	10345.36
926.29	10245.82
926.46	10279.66
926.63	10216.91
926.80	10233.54
926.97	10118.28
927.15	10195.03
927.32	10132.69
927.49	10110.33
927.66	10063.31
927.83	10153.42
928.01	10024.97
928.18	10059.87
928.35	9941.58
928.52	10028.90
928.69	9929.62
928.87	9884.07
929.04	9910.69
929.21	9908.73
929.38	9836.72
929.55	9879.32
929.72	9783.23
929.90	9786.51
930.07	9801.01
930.24	9691.56
930.41	9675.75
930.58	9649.86
930.75	9657.57
930.93	9593.91
931.10	9585.07
931.27	9489.06
931.44	9515.19
931.61	9446.95
931.78	9478.16
931.95	9446.05
932.13	9393.62
932.30	9482.26
932.47	9363.97
932.64	9400.67
932.81	9375.03
932.98	9369.29
933.15	9363.48
933.33	9280.66
933.50	9355.45
933.67	9226.26
933.84	9239.94
934.01	9284.10
934.18	9196.69
934.35	9224.30
934.52	9132.06
934.70	9149.26
934.87	9149.42
935.04	9084.38
935.21	9055.38
935.38	9043.50
935.55	8995.91
935.72	9049.40
935.89	8975.76
936.06	9006.15
936.24	8904.73
936.41	8982.72
936.58	8862.54
936.75	8885.32
936.92	8860.00
937.09	8895.56
937.26	8821.26
937.43	8810.44
937.60	8799.63
937.77	8771.45
937.94	8795.53
938.12	8787.18
938.29	8715.99
938.46	8754.57
938.63	8693.38
938.80	8717.79
938.97	8694.36
939.14	8656.93
939.31	8644.56
939.48	8646.77
939.65	8550.43
939.82	8559.77
939.99	8523.65
940.16	8535.69
940.33	8460.49
940.50	8452.29
940.67	8368.16
940.85	8459.18
941.02	8411.74
941.19	8412.32
941.36	8392.49
941.53	8421.90
941.70	8430.09
941.87	8360.63
942.04	8364.97
942.21	8346.70
942.38	8357.76
942.55	8292.47
942.72	8349.24
942.89	8275.02
943.06	8249.22
943.23	8212.11
943.40	8162.38
943.57	8198.51
943.74	8196.38
943.91	8160.42
944.08	8107.33
944.25	8182.62
944.42	8075.47
944.59	8061.79
944.76	8074.98
944.93	8029.27
945.10	8008.87
945.27	7995.27
945.44	7880.34
945.61	7948.49
945.78	7867.39
945.95	7885.99
946.12	7833.81
946.29	7869.36
946.46	7807.10
946.63	7823.73
946.80	7800.30
946.97	7807.68
947.14	7747.79
947.31	7774.99
947.48	7704.29
947.65	7745.25
947.82	7713.39
947.99	7727.40
948.16	7647.36
948.33	7726.58
948.50	7662.35
948.67	7671.36
948.84	7660.06
949.01	7601.98
949.18	7623.36
949.35	7645.72
949.52	7590.02
949.68	7608.20
949.85	7594.52
950.02	7588.95
950.19	7551.52
950.36	7525.14
950.53	7482.05
950.70	7453.05
950.87	7414.55
951.04	7469.27
951.21	7411.84
951.38	7334.27
951.55	7360.89
951.72	7372.52
951.89	7314.44
952.06	7375.88
952.23	7309.94
952.39	7312.97
952.56	7261.44
952.73	7309.53
952.90	7213.11
953.07	7277.25
953.24	7194.60
953.41	7256.94
953.58	7186.32
953.75	7219.91
953.92	7185.75
954.09	7173.05
954.25	7119.80
954.42	7148.72
954.59	7128.57
954.76	7081.55
954.93	7076.55
955.10	7084.17
955.27	7035.59
955.44	7053.20
955.61	6993.73
955.77	7064.26
955.94	7013.88
956.11	7012.74
956.28	7016.59
956.45	6979.89
956.62	6985.62
956.79	6945.97
956.96	6916.15
957.12	6936.47
957.29	6856.11
957.46	6853.57
957.63	6834.24
957.80	6818.59
957.97	6813.51
958.14	6871.18
958.30	6748.71
958.47	6800.16
958.64	6807.69
958.81	6839.23
958.98	6747.57
959.15	6802.12
959.32	6789.75
959.48	6774.84
959.65	6708.33
959.82	6779.76
959.99	6706.69
960.16	6752.15
960.33	6675.97
960.49	6676.21
960.66	6644.76
960.83	6616.09
961.00	6567.18
961.17	6587.09
961.33	6552.35
961.50	6538.43
961.67	6523.60
961.84	6542.28
962.01	6497.55
962.18	6533.59
962.34	6508.69
962.51	6496.57
962.68	6422.10
962.85	6479.28
963.02	6384.91
963.18	6425.13
963.35	6378.77
963.52	6408.67
963.69	6396.54
963.86	6437.26
964.02	6361.24
964.19	6370.33
964.36	6349.93
964.53	6380.24
964.69	6314.71
964.86	6376.39
965.03	6286.77
965.20	6333.38
965.37	6247.70
965.53	6265.72
965.70	6227.71
965.87	6247.94
966.04	6211.90
966.20	6161.27
966.37	6187.90
966.54	6149.89
966.71	6170.53
966.87	6130.06
967.04	6124.66
967.21	6101.96
967.38	6117.45
967.54	6100.00
967.71	6084.84
967.88	6072.47
968.05	6039.05
968.21	6016.60
968.38	6009.15
968.55	6033.23
968.72	6012.10
968.88	5977.28
969.05	6019.64
969.22	5959.83
969.39	6005.30
969.55	6007.35
969.72	5953.94
969.89	5955.25
970.05	6001.94
970.22	5990.96
970.39	5956.07
970.56	5989.41
970.72	5971.71
970.89	5968.03
971.06	5956.64
971.22	5951.81
971.39	5923.46
971.56	5924.28
971.73	5891.27
971.89	5927.23
972.06	5896.76
972.23	5889.22
972.39	5818.28
972.56	5880.54
972.73	5776.09
972.89	5818.69
973.06	5832.12
973.23	5802.96
973.39	5757.91
973.56	5778.47
973.73	5742.67
973.89	5790.84
974.06	5754.79
974.23	5744.55
974.39	5759.13
974.56	5710.72
974.73	5713.83
974.89	5696.06
975.06	5667.47
975.23	5714.41
975.39	5641.50
975.56	5656.49
975.73	5655.51
975.89	5648.38
976.06	5632.90
976.23	5594.56
976.39	5576.95
976.56	5579.57
976.73	5585.47
976.89	5554.75
977.06	5540.33
977.23	5557.12
977.39	5526.89
977.56	5554.09
977.72	5493.23
977.89	5524.52
978.06	5496.17
978.22	5482.66
978.39	5482.08
978.56	5476.10
978.72	5425.97
978.89	5441.78
979.05	5432.69
979.22	5454.15
979.39	5398.36
979.55	5425.15
979.72	5397.13
979.88	5408.93
980.05	5358.14
980.22	5396.56
980.38	5361.83
980.55	5346.26
980.71	5310.22
980.88	5356.18
981.05	5330.94
981.21	5289.99
981.38	5260.99
981.54	5293.51
981.71	5251.89
981.88	5269.42
982.04	5264.26
982.21	5255.17
982.37	5193.16
982.54	5239.36
982.70	5221.50
982.87	5235.59
983.04	5174.48
983.20	5264.26
983.37	5197.91
983.53	5231.25
983.70	5180.38
983.86	5169.81
984.03	5140.65
984.20	5168.17
984.36	5134.99
984.53	5155.88
984.69	5114.27
984.86	5086.91
985.02	5093.05
985.19	5081.67
985.35	5061.68
985.52	5101.49
985.68	5086.74
985.85	5087.32
986.02	5079.86
986.18	5090.10
986.35	5061.02
986.51	5106.65
986.68	5067.33
986.84	5057.34
987.01	5036.20
987.17	5044.15
987.34	5018.34
987.50	5008.10
987.67	4999.01
987.83	5010.40
988.00	4990.41
988.16	4974.27
988.33	4979.84
988.49	4998.27
988.66	4949.12
988.82	5002.94
988.99	4945.76
989.15	4963.70
989.32	4941.01
989.48	4921.27
989.65	4872.36
989.81	4905.21
989.98	4870.32
990.14	4871.46
990.31	4846.64
990.47	4856.55
990.64	4851.39
990.80	4848.69
990.97	4803.06
991.13	4807.07
991.30	4787.25
991.46	4806.91
991.63	4768.65
991.79	4786.68
991.95	4744.98
992.12	4771.60
992.28	4754.65
992.45	4760.79
992.61	4779.88
992.78	4765.21
992.94	4750.80
993.11	4781.52
993.27	4727.61
993.44	4761.69
993.60	4733.27
993.76	4749.89
993.93	4747.76
994.09	4725.24
994.26	4686.00
994.42	4702.71
994.59	4684.69
994.75	4703.86
994.91	4674.12
995.08	4663.88
995.24	4646.68
995.41	4641.60
995.57	4655.61
995.74	4623.66
995.90	4629.47
996.06	4640.29
996.23	4611.62
996.39	4599.49
996.56	4576.31
996.72	4595.48
996.88	4582.13
997.05	4584.09
997.21	4564.76
997.38	4594.82
997.54	4548.62
997.70	4588.11
997.87	4579.09
998.03	4561.07
998.20	4521.67
998.36	4557.47
998.52	4504.14
998.69	4578.93
998.85	4507.99
999.02	4533.63
999.18	4493.82
999.34	4514.30
999.51	4511.92
999.67	4500.86
999.83	4481.04
1000.00	4468.83
1000.16	4489.07
1000.33	4492.18
1000.49	4457.53
1000.65	4490.38
1000.82	4495.95
1000.98	4475.14
1001.14	4469.24
1001.31	4468.59
1001.47	4441.31
1001.63	4449.66
1001.80	4417.96
1001.96	4416.24
1002.12	4428.61
1002.29	4414.19
1002.45	4378.56
1002.61	4408.87
1002.78	4398.95
1002.94	4389.29
1003.10	4359.47
1003.27	4372.17
1003.43	4335.30
1003.59	4346.61
1003.76	4351.52
1003.92	4365.12
1004.08	4331.37
1004.25	4351.20
1004.41	4306.30
1004.57	4314.25
1004.74	4299.10
1004.90	4331.37
1005.06	4290.00
1005.23	4299.51
1005.39	4279.44
1005.55	4296.15
1005.71	4257.07
1005.88	4268.79
1006.04	4273.21
1006.20	4254.29
1006.37	4244.21
1006.53	4240.52
1006.69	4232.33
1006.85	4260.35
1007.02	4215.13
1007.18	4245.28
1007.34	4213.08
1007.51	4235.20
1007.67	4200.63
1007.83	4222.42
1007.99	4198.34
1008.16	4186.62
1008.32	4176.05
1008.48	4190.80
1008.64	4159.01
1008.81	4201.86
1008.97	4142.80
1009.13	4186.79
1009.29	4151.81
1009.46	4150.17
1009.62	4153.77
1009.78	4149.35
1009.95	4140.34
1010.11	4144.02
1010.27	4122.97
1010.43	4112.08
1010.59	4126.08
1010.76	4139.19
1010.92	4113.88
1011.08	4110.27
1011.24	4097.49
1011.41	4127.72
1011.57	4074.47
1011.73	4090.94
1011.89	4073.00
1012.06	4103.47
1012.22	4062.60
1012.38	4087.99
1012.54	4063.33
1012.70	4069.64
1012.87	4030.81
1013.03	4072.51
1013.19	4040.64
1013.35	4065.79
1013.51	4041.87
1013.68	4044.57
1013.84	4028.60
1014.00	4028.35
1014.16	4000.34
1014.32	4025.98
1014.49	3981.25
1014.65	4019.51
1014.81	3982.32
1014.97	4017.71
1015.13	3963.97
1015.30	3995.51
1015.46	4000.91
1015.62	4007.96
1015.78	3967.16
1015.94	3980.68
1016.10	3957.33
1016.27	3975.35
1016.43	3951.76
1016.59	3961.43
1016.75	3940.78
1016.91	3944.63
1017.07	3920.30
1017.24	3947.50
1017.40	3919.48
1017.56	3940.21
1017.72	3909.65
1017.88	3930.46
1018.04	3922.68
1018.21	3905.72
1018.37	3916.45
1018.53	3920.88
1018.69	3894.25
1018.85	3919.73
1019.01	3888.27
1019.17	3928.25
1019.34	3871.15
1019.50	3885.65
1019.66	3851.49
1019.82	3883.77
1019.98	3836.66
1020.14	3872.46
1020.30	3862.31
1020.46	3861.57
1020.63	3833.63
1020.79	3848.71
1020.95	3833.55
1021.11	3840.43
1021.27	3804.63
1021.43	3827.57
1021.59	3830.52
1021.75	3810.37
1021.91	3775.06
1022.07	3787.76
1022.24	3783.66
1022.40	3787.92
1022.56	3750.90
1022.72	3835.35
1022.88	3781.78
1023.04	3800.05
1023.20	3787.51
1023.36	3785.14
1023.52	3770.72
1023.68	3811.02
1023.84	3771.21
1024.01	3786.12
1024.17	3789.89
1024.33	3765.48
1024.49	3760.07
1024.65	3743.44
1024.81	3732.38
1024.97	3765.23
1025.13	3754.25
1025.29	3750.73
1025.45	3748.03
1025.61	3749.26
1025.77	3735.66
1025.93	3749.67
1026.09	3736.15
1026.25	3741.31
1026.41	3723.62
1026.57	3729.11
1026.73	3746.80
1026.90	3738.69
1027.06	3716.82
1027.22	3719.03
1027.38	3724.35
1027.54	3729.43
1027.70	3711.08
1027.86	3699.61
1028.02	3714.03
1028.18	3702.65
1028.34	3696.83
1028.50	3695.76
1028.66	3676.84
1028.82	3693.88
1028.98	3675.37
1029.14	3665.78
1029.30	3666.19
1029.46	3687.49
1029.62	3674.71
1029.78	3658.25
1029.94	3665.70
1030.10	3648.99
1030.26	3630.72
1030.42	3657.02
1030.58	3640.63
1030.74	3643.99
1030.90	3601.23
1031.06	3645.55
1031.22	3623.68
1031.38	3614.91
1031.54	3617.70
1031.70	3631.87
1031.86	3610.16
1032.02	3636.46
1032.18	3590.09
1032.34	3621.79
1032.50	3611.55
1032.66	3614.50
1032.82	3594.27
1032.98	3615.24
1033.14	3581.24
1033.30	3620.24
1033.45	3590.99
1033.61	3613.11
1033.77	3598.53
1033.93	3599.67
1034.09	3590.50
1034.25	3606.06
1034.41	3583.37
1034.57	3586.24
1034.73	3579.85
1034.89	3573.38
1035.05	3580.67
1035.21	3579.36
1035.37	3560.68
1035.53	3569.94
1035.69	3564.45
1035.85	3589.19
1036.01	3537.74
1036.16	3551.34
1036.32	3551.01
1036.48	3538.32
1036.64	3526.60
1036.80	3552.73
1036.96	3522.51
1037.12	3527.34
1037.28	3534.71
1037.44	3526.77
1037.60	3524.64
1037.76	3517.10
1037.91	3512.92
1038.07	3521.52
1038.23	3521.52
1038.39	3505.79
1038.55	3511.69
1038.71	3509.24
1038.87	3490.64
1039.03	3520.62
1039.19	3496.29
1039.35	3505.96
1039.50	3513.41
1039.66	3526.93
1039.82	3485.81
1039.98	3503.58
1040.14	3481.22
1040.30	3497.85
1040.46	3469.67
1040.62	3480.97
1040.77	3484.17
1040.93	3490.89
1041.09	3470.65
1041.25	3496.05
1041.41	3486.38
1041.57	3473.85
1041.73	3473.85
1041.88	3473.85

