SpectraSuite Data File
++++++++++++++++++++++++++++++++++++
Date: Tue Sep 20 11:43:23 EDT 2022
User: Laboratoire
Dark Spectrum Present: No
Reference Spectrum Present: No
Number of Sampled Component Spectra: 1
Spectrometers: FLMT00174
Integration Time (usec): 15000 (FLMT00174)
Spectra Averaged: 25 (FLMT00174)
Boxcar Smoothing: 0 (FLMT00174)
Correct for Electrical Dark: No (FLMT00174)
Strobe/Lamp Enabled: No (FLMT00174)
Correct for Detector Non-linearity: No (FLMT00174)
Correct for Stray Light: No (FLMT00174)
Number of Pixels in Processed Spectrum: 3648
>>>>>Begin Processed Spectral Data<<<<<
345.74	3150.51
345.96	3150.51
346.18	3150.51
346.39	3174.43
346.61	3210.40
346.83	3197.29
347.05	3190.08
347.27	3213.84
347.49	3206.87
347.71	3203.02
347.93	3211.54
348.15	3217.20
348.36	3202.29
348.58	3207.20
348.80	3201.96
349.02	3221.86
349.24	3210.07
349.46	3300.83
349.68	3336.71
349.90	3328.03
350.11	3333.77
350.33	3324.75
350.55	3324.84
350.77	3342.12
350.99	3298.54
351.21	3328.19
351.43	3314.27
351.65	3330.41
351.86	3313.37
352.08	3357.52
352.30	3317.14
352.52	3334.91
352.74	3307.22
352.96	3308.04
353.18	3317.96
353.39	3335.49
353.61	3320.17
353.83	3329.75
354.05	3352.03
354.27	3355.15
354.49	3343.60
354.70	3346.71
354.92	3324.10
355.14	3332.78
355.36	3321.72
355.58	3330.00
355.80	3310.83
356.02	3321.89
356.23	3327.87
356.45	3343.68
356.67	3343.35
356.89	3347.86
357.11	3329.34
357.33	3366.29
357.54	3318.20
357.76	3316.64
357.98	3334.50
358.20	3344.01
358.42	3309.35
358.63	3356.54
358.85	3322.13
359.07	3334.99
359.29	3325.16
359.51	3321.56
359.73	3335.32
359.94	3318.53
360.16	3322.38
360.38	3341.14
360.60	3323.94
360.82	3360.31
361.03	3335.08
361.25	3336.14
361.47	3340.97
361.69	3357.85
361.91	3346.79
362.12	3337.04
362.34	3339.17
362.56	3356.13
362.78	3353.92
363.00	3348.43
363.21	3339.91
363.43	3352.20
363.65	3315.99
363.87	3333.36
364.09	3348.10
364.30	3331.72
364.52	3321.15
364.74	3357.28
364.96	3330.32
365.17	3363.99
365.39	3354.74
365.61	3317.96
365.83	3333.44
366.05	3357.44
366.26	3337.04
366.48	3342.61
366.70	3359.49
366.92	3351.13
367.13	3335.57
367.35	3353.43
367.57	3360.80
367.79	3365.63
368.01	3336.55
368.22	3373.99
368.44	3356.21
368.66	3347.20
368.88	3338.68
369.09	3343.92
369.31	3345.97
369.53	3361.45
369.75	3361.86
369.96	3369.89
370.18	3343.84
370.40	3370.71
370.62	3357.11
370.83	3362.68
371.05	3370.87
371.27	3364.24
371.49	3352.85
371.70	3367.02
371.92	3370.30
372.14	3381.77
372.36	3355.06
372.57	3368.74
372.79	3365.22
373.01	3356.62
373.22	3348.76
373.44	3378.66
373.66	3360.55
373.88	3358.34
374.09	3348.92
374.31	3350.97
374.53	3359.08
374.75	3369.32
374.96	3375.30
375.18	3390.13
375.40	3369.15
375.61	3378.82
375.83	3361.95
376.05	3378.25
376.27	3385.70
376.48	3361.21
376.70	3367.84
376.92	3370.38
377.13	3378.17
377.35	3383.82
377.57	3372.27
377.79	3360.23
378.00	3371.45
378.22	3394.06
378.44	3349.66
378.65	3376.45
378.87	3383.49
379.09	3402.00
379.30	3389.06
379.52	3392.99
379.74	3404.13
379.96	3398.89
380.17	3389.63
380.39	3399.55
380.61	3383.57
380.82	3400.86
381.04	3383.74
381.26	3410.20
381.47	3392.01
381.69	3418.88
381.91	3411.34
382.12	3413.14
382.34	3414.95
382.56	3414.62
382.77	3407.57
382.99	3420.93
383.21	3417.40
383.42	3421.01
383.64	3421.34
383.86	3411.51
384.07	3429.28
384.29	3432.72
384.51	3409.62
384.72	3427.97
384.94	3414.62
385.16	3437.64
385.37	3431.82
385.59	3429.53
385.81	3448.04
386.02	3414.62
386.24	3453.53
386.46	3435.75
386.67	3461.07
386.89	3472.37
387.11	3487.94
387.32	3472.86
387.54	3452.22
387.76	3462.46
387.97	3488.59
388.19	3478.60
388.40	3484.74
388.62	3461.56
388.84	3478.52
389.05	3489.98
389.27	3492.77
389.49	3500.39
389.70	3492.61
389.92	3491.54
390.14	3497.19
390.35	3497.44
390.57	3521.44
390.78	3486.13
391.00	3474.58
391.22	3499.90
391.43	3505.39
391.65	3537.09
391.86	3545.69
392.08	3536.92
392.30	3522.34
392.51	3523.90
392.73	3562.65
392.95	3551.18
393.16	3544.62
393.38	3554.62
393.59	3528.81
393.81	3598.53
394.03	3566.33
394.24	3576.98
394.46	3545.44
394.67	3589.60
394.89	3581.41
395.11	3601.39
395.32	3615.48
395.54	3610.08
395.75	3605.98
395.97	3601.56
396.19	3585.67
396.40	3643.83
396.62	3637.11
396.83	3631.05
397.05	3626.38
397.26	3628.02
397.48	3626.05
397.70	3673.89
397.91	3658.57
398.13	3641.29
398.34	3658.57
398.56	3676.02
398.78	3671.02
398.99	3722.88
399.21	3672.09
399.42	3722.72
399.64	3684.54
399.85	3708.22
400.07	3712.39
400.29	3734.51
400.50	3726.16
400.72	3734.35
400.93	3724.85
401.15	3733.04
401.36	3742.05
401.58	3786.28
401.79	3749.18
402.01	3777.85
402.23	3766.38
402.44	3811.19
402.66	3799.31
402.87	3802.50
403.09	3803.90
403.30	3807.67
403.52	3817.00
403.73	3786.86
403.95	3825.61
404.16	3840.43
404.38	3841.01
404.60	3844.86
404.81	3851.00
405.03	3864.93
405.24	3875.66
405.46	3901.79
405.67	3895.56
405.89	3913.75
406.10	3905.07
406.32	3922.60
406.53	3920.06
406.75	3965.28
406.96	3961.67
407.18	3939.39
407.39	3934.07
407.61	3961.34
407.82	3974.12
408.04	4001.57
408.25	3959.22
408.47	3996.82
408.68	4016.89
408.90	3999.93
409.12	4037.20
409.33	4035.73
409.55	4029.99
409.76	4056.62
409.98	4041.54
410.19	4058.91
410.41	4085.12
410.62	4081.60
410.84	4070.38
411.05	4100.20
411.27	4137.63
411.48	4116.01
411.70	4128.79
411.91	4166.22
412.12	4156.64
412.34	4141.81
412.55	4180.15
412.77	4158.69
412.98	4203.41
413.20	4180.07
413.41	4209.39
413.63	4191.21
413.84	4211.85
414.06	4248.63
414.27	4249.21
414.49	4250.35
414.70	4267.23
414.92	4281.97
415.13	4287.30
415.35	4303.11
415.56	4340.22
415.78	4316.79
415.99	4332.03
416.21	4361.11
416.42	4384.05
416.63	4374.54
416.85	4393.79
417.06	4384.86
417.28	4376.43
417.49	4444.17
417.71	4398.55
417.92	4423.53
418.14	4454.82
418.35	4457.44
418.57	4474.73
418.78	4499.22
418.99	4481.61
419.21	4514.05
419.42	4530.35
419.64	4533.22
419.85	4563.78
420.07	4604.49
420.28	4558.04
420.50	4574.51
420.71	4604.90
420.92	4612.93
421.14	4659.62
421.35	4625.38
421.57	4651.26
421.78	4656.92
422.00	4684.36
422.21	4690.75
422.42	4719.75
422.64	4714.51
422.85	4744.57
423.07	4785.28
423.28	4761.86
423.50	4805.19
423.71	4828.21
423.92	4872.53
424.14	4820.10
424.35	4844.02
424.57	4884.90
424.78	4904.23
424.99	4921.76
425.21	4928.48
425.42	4947.65
425.64	4930.03
425.85	4972.88
426.06	4973.78
426.28	5011.30
426.49	5070.03
426.71	5033.09
426.92	5052.09
427.13	5106.41
427.35	5147.77
427.56	5148.02
427.78	5144.99
427.99	5165.14
428.20	5197.25
428.42	5226.25
428.63	5236.49
428.84	5191.03
429.06	5236.98
429.27	5281.55
429.49	5290.56
429.70	5361.66
429.91	5303.42
430.13	5391.56
430.34	5373.30
430.56	5414.99
430.77	5440.63
430.98	5428.59
431.20	5457.10
431.41	5516.57
431.62	5534.59
431.84	5492.16
432.05	5556.22
432.26	5546.47
432.48	5517.15
432.69	5621.10
432.91	5612.66
433.12	5661.73
433.33	5661.16
433.55	5752.99
433.76	5767.98
433.97	5709.74
434.19	5739.15
434.40	5815.25
434.61	5831.06
434.83	5857.11
435.04	5834.09
435.25	5910.93
435.47	5902.49
435.68	5904.62
435.89	5989.57
436.11	5986.38
436.32	6018.90
436.53	6032.82
436.75	5999.73
436.96	6075.83
437.17	6014.88
437.39	6053.30
437.60	6099.83
437.81	6124.49
438.03	6178.89
438.24	6164.47
438.45	6280.96
438.67	6211.98
438.88	6319.95
439.09	6361.73
439.31	6328.80
439.52	6362.47
439.73	6353.45
439.94	6341.08
440.16	6372.95
440.37	6388.76
440.58	6477.81
440.80	6502.22
441.01	6482.31
441.22	6656.39
441.44	6622.89
441.65	6574.39
441.86	6611.42
442.08	6650.98
442.29	6650.57
442.50	6700.95
442.71	6715.13
442.93	6749.04
443.14	6765.18
443.35	6845.46
443.57	6796.80
443.78	6885.93
443.99	6910.34
444.20	6858.48
444.42	6913.86
444.63	6955.88
444.84	6999.30
445.06	7095.72
445.27	6995.62
445.48	7015.19
445.69	7063.20
445.91	7089.74
446.12	7047.22
446.33	7148.07
446.54	7260.87
446.76	7156.67
446.97	7212.45
447.18	7245.80
447.39	7311.66
447.61	7334.84
447.82	7371.38
448.03	7336.56
448.25	7454.69
448.46	7454.93
448.67	7573.06
448.88	7452.89
449.10	7566.59
449.31	7601.24
449.52	7597.72
449.73	7623.69
449.95	7766.63
450.16	7657.11
450.37	7822.18
450.58	7957.18
450.79	7755.99
451.01	7870.59
451.22	7815.29
451.43	7870.43
451.64	8007.39
451.86	7995.76
452.07	8016.41
452.28	8072.27
452.49	8200.31
452.71	8108.15
452.92	8090.87
453.13	8182.21
453.34	8226.04
453.55	8316.88
453.77	8374.14
453.98	8377.99
454.19	8329.33
454.40	8463.93
454.62	8505.38
454.83	8422.97
455.04	8595.98
455.25	8472.36
455.46	8815.52
455.68	8668.40
455.89	8671.76
456.10	8730.82
456.31	8780.38
456.52	8831.74
456.74	8826.25
456.95	9022.20
457.16	8907.76
457.37	9098.72
457.58	9033.59
457.80	9049.65
458.01	9040.80
458.22	9447.94
458.43	9222.82
458.64	9296.71
458.86	9172.77
459.07	9330.38
459.28	9306.54
459.49	9459.24
459.70	9704.91
459.91	9583.10
460.13	9599.89
460.34	9682.14
460.55	9655.76
460.76	9841.39
460.97	9812.97
461.19	9839.83
461.40	10132.94
461.61	9997.20
461.82	10040.13
462.03	10123.03
462.24	10151.45
462.46	10157.11
462.67	10155.88
462.88	10333.72
463.09	10289.98
463.30	10486.26
463.51	10335.77
463.72	10589.06
463.94	10660.41
464.15	10675.41
464.36	10538.36
464.57	10910.43
464.78	10909.04
464.99	10931.73
465.20	10890.03
465.42	11093.76
465.63	11092.04
465.84	11052.56
466.05	11245.89
466.26	11342.22
466.47	11418.41
466.68	11344.85
466.90	11564.72
467.11	11566.27
467.32	11651.06
467.53	11809.98
467.74	11612.80
467.95	11751.65
468.16	12002.16
468.37	12055.41
468.59	12102.18
468.80	12288.80
469.01	12143.39
469.22	12362.19
469.43	12640.55
469.64	12486.38
469.85	12589.36
470.06	12737.14
470.28	12878.36
470.49	12641.54
470.70	12868.86
470.91	13164.67
471.12	13027.54
471.33	13349.64
471.54	13228.90
471.75	13266.00
471.96	13680.27
472.17	13628.99
472.39	13894.57
472.60	13665.19
472.81	14052.18
473.02	13966.74
473.23	14220.36
473.44	14305.72
473.65	14261.24
473.86	14401.48
474.07	14491.75
474.28	14590.47
474.49	14994.33
474.71	14866.21
474.92	15088.04
475.13	14990.39
475.34	15173.15
475.55	15170.12
475.76	15316.84
475.97	15705.22
476.18	15659.75
476.39	15919.02
476.60	16085.24
476.81	16137.99
477.02	16344.18
477.23	16371.13
477.44	16373.10
477.65	16634.99
477.87	16878.46
478.08	16924.99
478.29	17045.08
478.50	17431.41
478.71	17287.07
478.92	17504.32
479.13	17533.81
479.34	17740.57
479.55	17889.42
479.76	17817.98
479.97	17993.37
480.18	18505.77
480.39	18210.13
480.60	18608.58
480.81	18679.85
481.02	18757.67
481.23	18879.08
481.44	19192.09
481.65	19416.71
481.86	19691.14
482.07	19269.42
482.28	20161.84
482.49	19903.39
482.71	19993.01
482.92	20276.20
483.13	20539.82
483.34	20413.82
483.55	20623.05
483.76	20703.82
483.97	21044.27
484.18	20980.62
484.39	21322.39
484.60	21214.66
484.81	21649.00
485.02	21539.14
485.23	21904.58
485.44	22035.24
485.65	22316.47
485.86	22193.76
486.07	22518.24
486.28	22541.01
486.49	22787.42
486.70	23006.23
486.91	23303.75
487.12	23161.95
487.33	23186.36
487.54	23680.58
487.75	23727.85
487.96	23843.84
488.17	23844.58
488.38	24168.65
488.59	24275.47
488.80	24439.07
489.01	24544.91
489.22	24881.84
489.43	24814.91
489.64	24753.06
489.85	25398.42
490.06	25042.48
490.26	25464.69
490.47	25361.39
490.68	25815.71
490.89	26139.04
491.10	25796.62
491.31	26168.70
491.52	26477.53
491.73	26393.57
491.94	26457.22
492.15	26761.22
492.36	26938.82
492.57	26902.94
492.78	26975.84
492.99	27148.77
493.20	27429.43
493.41	27477.27
493.62	27601.62
493.83	27636.44
494.04	27902.67
494.25	28187.18
494.46	28156.13
494.67	28128.11
494.88	28424.09
495.08	28522.31
495.29	28722.43
495.50	28974.17
495.71	28905.44
495.92	29179.70
496.13	29322.98
496.34	29166.93
496.55	29382.13
496.76	29914.02
496.97	29416.70
497.18	29906.65
497.39	29714.22
497.60	30265.62
497.81	29879.13
498.02	30275.61
498.22	29971.78
498.43	30562.82
498.64	30640.32
498.85	30679.72
499.06	30799.16
499.27	31274.78
499.48	30587.15
499.69	31104.22
499.90	31266.67
500.11	31517.01
500.32	31836.33
500.52	31555.43
500.73	32161.96
500.94	32155.24
501.15	32213.48
501.36	32339.15
501.57	32138.45
501.78	32476.44
501.99	32783.97
502.20	32697.62
502.41	32735.72
502.61	32697.95
502.82	33078.71
503.03	32920.85
503.24	33430.06
503.45	33162.18
503.66	33595.62
503.87	33575.46
504.08	33944.51
504.28	33769.53
504.49	33903.79
504.70	34036.01
504.91	34273.74
505.12	33998.49
505.33	34571.92
505.54	34583.39
505.75	34776.72
505.95	34967.43
506.16	34772.46
506.37	34716.35
506.58	35320.42
506.79	34898.86
507.00	35442.72
507.21	35084.16
507.41	35287.16
507.62	35384.97
507.83	35924.40
508.04	35526.11
508.25	36050.56
508.46	35818.40
508.67	36337.03
508.87	36082.83
509.08	36578.20
509.29	36399.20
509.50	36613.67
509.71	36739.90
509.92	36907.18
510.12	36854.92
510.33	37122.63
510.54	36983.69
510.75	37240.92
510.96	37493.80
511.17	37651.41
511.37	37639.78
511.58	37904.87
511.79	37672.14
512.00	37636.91
512.21	38179.30
512.42	38111.80
512.62	38357.23
512.83	38517.46
513.04	38469.37
513.25	38927.71
513.46	38111.06
513.66	39207.21
513.87	38843.33
514.08	39285.45
514.29	39038.87
514.50	39043.71
514.71	39401.03
514.91	39255.79
515.12	39310.35
515.33	39732.23
515.54	39579.78
515.75	40098.98
515.95	39778.02
516.16	39836.11
516.37	40395.20
516.58	40457.46
516.78	40258.81
516.99	40526.43
517.20	40466.63
517.41	40531.60
517.62	40845.26
517.82	40757.85
518.03	41411.65
518.24	41878.59
518.45	41100.28
518.66	41652.41
518.86	41386.25
519.07	41950.26
519.28	41305.48
519.49	42120.66
519.69	42195.61
519.90	42277.04
520.11	42425.47
520.32	42244.11
520.52	42767.08
520.73	42398.61
520.94	42969.17
521.15	43022.25
521.36	42484.21
521.56	43371.88
521.77	42759.95
521.98	43391.71
522.19	42945.74
522.39	43505.33
522.60	43356.07
522.81	43572.26
523.02	43337.64
523.22	43770.09
523.43	43962.52
523.64	43803.10
523.84	43939.17
524.05	44411.84
524.26	44451.00
524.47	44307.07
524.67	44514.40
524.88	44755.65
525.09	45118.06
525.30	44740.25
525.50	44838.97
525.71	45004.44
525.92	44987.73
526.13	45439.51
526.33	45126.75
526.54	45006.16
526.75	45356.45
526.95	45934.05
527.16	45193.35
527.37	45867.78
527.58	46066.60
527.78	45976.08
527.99	46342.75
528.20	46508.71
528.40	46256.57
528.61	46063.00
528.82	46645.60
529.03	46627.09
529.23	46570.32
529.44	46985.24
529.65	47071.66
529.85	47110.41
530.06	47098.61
530.27	47086.32
530.47	46772.25
530.68	47792.30
530.89	46822.05
531.09	47740.20
531.30	47575.95
531.51	47252.62
531.72	47960.72
531.92	47936.72
532.13	48208.37
532.34	48091.47
532.54	48055.18
532.75	48335.26
532.96	48221.64
533.16	48587.73
533.37	48789.41
533.58	48483.69
533.78	48920.81
533.99	49092.27
534.20	48609.85
534.40	48964.39
534.61	49209.90
534.82	49342.37
535.02	49371.94
535.23	49384.06
535.44	49703.71
535.64	49519.56
535.85	49687.41
536.06	49719.93
536.26	49747.29
536.47	49934.56
536.68	50561.32
536.88	49803.98
537.09	50626.44
537.29	50058.34
537.50	50932.90
537.71	50540.84
537.91	50660.19
538.12	50921.27
538.33	50547.64
538.53	50942.24
538.74	51113.20
538.95	51124.02
539.15	50825.18
539.36	51317.35
539.56	51554.01
539.77	51105.01
539.98	51237.80
540.18	51546.39
540.39	51355.11
540.60	51801.65
540.80	52092.62
541.01	52014.06
541.21	51973.11
541.42	52156.52
541.63	52105.73
541.83	52452.25
542.04	52479.36
542.25	52458.88
542.45	52535.56
542.66	52591.84
542.86	52823.91
543.07	51781.42
543.28	52893.87
543.48	52745.68
543.69	53113.09
543.89	52922.13
544.10	53550.20
544.31	53248.33
544.51	53117.51
544.72	53323.29
544.92	53175.67
545.13	53579.20
545.33	53622.05
545.54	53360.89
545.75	53843.80
545.95	53500.48
546.16	53651.78
546.36	54243.89
546.57	53306.09
546.78	52725.61
546.98	53532.02
547.19	52630.75
547.39	53681.52
547.60	53985.60
547.80	54664.14
548.01	54724.26
548.22	54281.82
548.42	54551.09
548.63	54785.70
548.83	54559.44
549.04	54923.33
549.24	54652.26
549.45	54971.66
549.65	55374.62
549.86	54750.48
550.07	55104.04
550.27	55497.00
550.48	55382.65
550.68	55300.32
550.89	55230.28
551.09	55477.75
551.30	55243.06
551.50	55700.82
551.71	55388.87
551.91	55482.67
552.12	55693.85
552.33	55947.39
552.53	55515.60
552.74	56146.46
552.94	56215.92
553.15	56029.48
553.35	56282.20
553.56	55834.35
553.76	56498.62
553.97	56150.55
554.17	56313.16
554.38	57037.81
554.58	56306.69
554.79	57100.15
554.99	56499.77
555.20	56651.73
555.40	57173.23
555.61	56778.62
555.81	56407.37
556.02	57391.62
556.22	57214.59
556.43	56936.07
556.63	57129.07
556.84	56956.14
557.04	57681.29
557.25	56918.21
557.45	57512.21
557.66	57501.15
557.86	57240.81
558.07	57954.40
558.27	57440.03
558.48	57615.18
558.68	57749.85
558.89	57981.11
559.09	57896.90
559.30	57606.33
559.50	57852.00
559.71	57436.02
559.91	58349.41
560.12	58039.43
560.32	58122.58
560.53	58309.93
560.73	58038.78
560.94	58571.25
561.14	58112.42
561.35	58782.68
561.55	58523.16
561.76	58679.38
561.96	58130.69
562.17	58679.47
562.37	58860.92
562.57	58591.89
562.78	58512.92
562.98	58808.32
563.19	58836.91
563.39	59000.42
563.60	59037.12
563.80	58476.88
564.01	59212.02
564.21	58933.66
564.42	58826.59
564.62	59048.84
564.82	59454.91
565.03	58873.86
565.23	58923.67
565.44	59124.28
565.64	58986.66
565.85	59438.85
566.05	59232.25
566.25	59632.34
566.46	59238.64
566.66	59534.29
566.87	59516.43
567.07	59566.73
567.28	59761.28
567.48	60059.88
567.68	59235.37
567.89	60342.42
568.09	59846.32
568.30	59893.67
568.50	60244.61
568.71	60000.98
568.91	60391.90
569.11	59893.09
569.32	59973.95
569.52	60085.36
569.73	59630.95
569.93	60314.48
570.13	60156.95
570.34	60086.34
570.54	60603.33
570.75	60280.40
570.95	60397.22
571.15	60164.49
571.36	60695.16
571.56	60094.53
571.77	60119.76
571.97	59790.53
572.17	60792.31
572.38	60594.48
572.58	60872.92
572.79	60554.83
572.99	60805.83
573.19	60590.71
573.40	60602.18
573.60	60839.34
573.81	60671.81
574.01	60961.64
574.21	60957.05
574.42	60961.39
574.62	60677.05
574.82	61203.05
575.03	60836.47
575.23	61276.95
575.43	60890.45
575.64	60935.51
575.84	61399.50
576.05	60841.79
576.25	61215.75
576.45	61023.32
576.66	61645.33
576.86	61133.75
577.06	61622.15
577.27	61455.69
577.47	61490.51
577.67	61261.71
577.88	60852.85
578.08	61596.76
578.28	61743.80
578.49	61504.93
578.69	61751.58
578.89	61350.67
579.10	61566.04
579.30	62331.57
579.50	61781.24
579.71	61378.20
579.91	61898.30
580.11	61675.73
580.32	61627.80
580.52	61698.91
580.72	62309.61
580.93	61630.42
581.13	61816.13
581.33	62392.02
581.54	61865.37
581.74	61872.82
581.94	61965.39
582.15	62300.85
582.35	61964.57
582.55	62142.17
582.76	61786.64
582.96	62393.58
583.16	61950.89
583.37	62356.31
583.57	62057.71
583.77	62684.39
583.97	61567.02
584.18	62901.56
584.38	62575.19
584.58	62226.30
584.79	62740.01
584.99	62615.25
585.19	62507.77
585.40	62453.87
585.60	62748.53
585.80	62217.78
586.00	62573.31
586.21	62501.38
586.41	62729.12
586.61	62913.11
586.82	62769.10
587.02	62656.70
587.22	63028.86
587.42	62304.53
587.63	63025.09
587.83	62269.55
588.03	62760.08
588.23	62357.21
588.44	62678.90
588.64	62398.90
588.84	62811.77
589.05	63026.16
589.25	63043.03
589.45	62994.78
589.65	62812.18
589.86	63070.97
590.06	63165.01
590.26	62897.71
590.46	63322.54
590.67	62575.19
590.87	63377.26
591.07	63539.46
591.27	62923.10
591.48	63397.41
591.68	62686.60
591.88	63772.35
592.08	62851.75
592.29	63326.06
592.49	63148.46
592.69	63468.93
592.89	63207.61
593.10	63340.64
593.30	63071.46
593.50	63718.94
593.70	62575.36
593.90	63508.82
594.11	63390.37
594.31	63456.64
594.51	63767.36
594.71	63919.40
594.92	63887.04
595.12	63555.35
595.32	63681.83
595.52	63905.80
595.72	63078.50
595.93	63902.85
596.13	63551.50
596.33	63258.56
596.53	63747.94
596.73	63566.49
596.94	63444.11
597.14	63963.47
597.34	63686.26
597.54	64025.40
597.74	63497.84
597.95	63781.45
598.15	63787.67
598.35	63949.13
598.55	64062.18
598.75	63714.27
598.96	64422.05
599.16	63860.91
599.36	63937.91
599.56	63846.65
599.76	63759.98
599.97	64349.39
600.17	63992.72
600.37	64238.23
600.57	63524.47
600.77	64456.13
600.97	64077.75
601.18	64688.04
601.38	64090.53
601.58	64440.98
601.78	64141.40
601.98	63991.98
602.18	64484.15
602.39	64779.14
602.59	64566.72
602.79	64285.66
602.99	64194.73
603.19	64332.11
603.39	64219.63
603.60	64306.14
603.80	64317.52
604.00	64212.34
604.20	64383.39
604.40	64652.08
604.60	64401.65
604.80	64365.69
605.01	64658.14
605.21	64511.43
605.41	64440.81
605.61	64102.73
605.81	64455.72
606.01	64743.34
606.21	64237.16
606.42	64658.22
606.62	64439.83
606.82	65046.35
607.02	64736.95
607.22	64892.51
607.42	65015.23
607.62	64180.56
607.82	64499.55
608.03	64360.61
608.23	64223.15
608.43	63973.87
608.63	64599.24
608.83	64487.18
609.03	64470.79
609.23	64554.43
609.43	64730.31
609.63	64507.41
609.84	64459.32
610.04	65063.07
610.24	64867.61
610.44	64866.30
610.64	64644.79
610.84	64916.60
611.04	65249.68
611.24	64893.33
611.44	64156.39
611.64	64770.86
611.85	64652.16
612.05	64603.42
612.25	64828.94
612.45	64495.53
612.65	64848.36
612.85	65004.00
613.05	64601.04
613.25	65175.79
613.45	65050.78
613.65	65058.97
613.85	64636.52
614.05	65029.73
614.25	65158.75
614.46	64889.32
614.66	64607.19
614.86	64502.33
615.06	64751.45
615.26	65137.28
615.46	64431.72
615.66	65067.08
615.86	64977.30
616.06	64580.40
616.26	64621.93
616.46	65200.20
616.66	64690.66
616.86	65262.70
617.06	64765.62
617.26	65253.36
617.46	65044.55
617.66	64755.38
617.86	64548.12
618.07	64841.07
618.27	64845.98
618.47	64939.78
618.67	64970.99
618.87	65061.76
619.07	64599.90
619.27	64492.42
619.47	64578.19
619.67	65032.18
619.87	64501.84
620.07	64898.66
620.27	64786.51
620.47	64386.09
620.67	64784.95
620.87	64806.66
621.07	65023.42
621.27	64846.06
621.47	64482.59
621.67	64732.93
621.87	64464.98
622.07	64907.75
622.27	64855.48
622.47	64459.73
622.67	64724.99
622.87	64219.22
623.07	64819.85
623.27	65158.58
623.47	64131.08
623.67	64843.52
623.87	65063.97
624.07	64894.15
624.27	64452.44
624.47	64787.49
624.67	64631.35
624.87	64843.44
625.07	64406.73
625.27	64969.27
625.47	64513.88
625.67	64520.52
625.87	64806.50
626.07	64596.29
626.27	64833.69
626.47	64729.90
626.67	64582.78
626.87	64196.28
627.07	64805.84
627.27	64678.21
627.47	64807.40
627.67	64422.54
627.87	64424.18
628.07	64827.96
628.27	64670.18
628.47	64381.99
628.67	65040.70
628.86	65044.96
629.06	64637.50
629.26	64360.78
629.46	64867.03
629.66	64629.96
629.86	64156.31
630.06	64743.75
630.26	64557.05
630.46	64931.01
630.66	64367.17
630.86	64438.85
631.06	64453.43
631.26	64102.57
631.46	64660.19
631.66	64533.38
631.86	64199.07
632.06	64701.97
632.26	64500.61
632.45	64446.87
632.65	64630.70
632.85	64718.68
633.05	64611.86
633.25	64631.85
633.45	64194.40
633.65	64305.73
633.85	64778.07
634.05	63847.15
634.25	64142.71
634.45	64240.44
634.65	64665.02
634.84	64264.28
635.04	64446.38
635.24	64125.75
635.44	64457.36
635.64	64029.66
635.84	64231.02
636.04	64050.80
636.24	64070.78
636.44	64312.28
636.64	63740.49
636.84	64719.01
637.03	64036.54
637.23	64315.56
637.43	64336.36
637.63	64042.44
637.83	64279.51
638.03	64065.30
638.23	63607.04
638.43	64185.06
638.62	64492.67
638.82	63497.27
639.02	64405.67
639.22	63947.09
639.42	64256.25
639.62	63706.16
639.82	63951.59
640.02	64006.64
640.21	64179.16
640.41	63586.40
640.61	64091.43
640.81	63959.70
641.01	63826.99
641.21	63766.29
641.41	64404.03
641.61	63799.47
641.80	63744.34
642.00	64082.42
642.20	64205.95
642.40	63378.16
642.60	63860.83
642.80	63948.64
642.99	63511.36
643.19	64053.91
643.39	63500.55
643.59	63981.98
643.79	63689.45
643.99	63932.42
644.19	63656.68
644.38	63275.44
644.58	63595.33
644.78	63460.33
644.98	63351.13
645.18	63613.27
645.38	63939.63
645.57	63373.90
645.77	63640.38
645.97	63401.02
646.17	63765.06
646.37	63519.14
646.56	63385.94
646.76	63444.11
646.96	63504.97
647.16	63084.89
647.36	63349.08
647.55	63075.72
647.75	63316.64
647.95	62980.20
648.15	63220.39
648.35	63200.32
648.55	63505.79
648.74	63262.90
648.94	63223.99
649.14	63577.22
649.34	63062.04
649.54	63060.32
649.73	63242.18
649.93	62965.70
650.13	63104.88
650.33	62880.42
650.52	63259.71
650.72	63499.32
650.92	63092.51
651.12	62848.06
651.32	63229.72
651.51	63263.80
651.71	63219.48
651.91	62838.23
652.11	62670.38
652.30	62491.64
652.50	62835.45
652.70	62924.58
652.90	62439.13
653.10	62844.71
653.29	62627.46
653.49	63086.45
653.69	62611.16
653.89	62748.45
654.08	62608.70
654.28	62959.80
654.48	62742.88
654.68	63014.69
654.87	62737.88
655.07	62571.43
655.27	63046.55
655.47	62586.66
655.66	62520.64
655.86	62432.82
656.06	63059.09
656.26	62017.98
656.45	62409.31
656.65	62239.65
656.85	62078.52
657.04	61751.75
657.24	61915.42
657.44	61888.88
657.64	62593.87
657.83	61604.54
658.03	62336.32
658.23	62273.40
658.43	61988.25
658.62	62064.43
658.82	61874.54
659.02	61859.47
659.21	61970.31
659.41	61711.61
659.61	62283.89
659.81	61888.96
660.00	61644.02
660.20	61831.29
660.40	61575.46
660.59	61766.25
660.79	61200.76
660.99	61668.35
661.19	61660.33
661.38	61507.30
661.58	60750.62
661.78	61129.00
661.97	60873.66
662.17	61598.72
662.37	60951.15
662.56	61059.12
662.76	61089.27
662.96	61166.03
663.15	61346.74
663.35	61217.39
663.55	60961.07
663.74	60671.73
663.94	61116.38
664.14	60563.60
664.33	60885.70
664.53	60694.83
664.73	61250.90
664.93	60409.84
665.12	60968.93
665.32	60746.03
665.52	60772.82
665.71	60542.54
665.91	60727.43
666.10	60320.71
666.30	60761.35
666.50	60211.84
666.69	60161.05
666.89	60554.18
667.09	60899.30
667.28	60388.45
667.48	60236.41
667.68	60374.45
667.87	60399.84
668.07	60121.32
668.27	60554.75
668.46	60485.36
668.66	60219.62
668.86	60760.28
669.05	60224.04
669.25	60413.19
669.44	60043.66
669.64	60072.41
669.84	60099.61
670.03	60598.82
670.23	60041.61
670.43	59940.69
670.62	59884.98
670.82	59833.95
671.01	60121.56
671.21	59669.54
671.41	59746.13
671.60	60016.95
671.80	60175.96
672.00	59752.77
672.19	60075.36
672.39	59847.30
672.58	59637.75
672.78	59560.34
672.98	59950.93
673.17	59678.71
673.37	58846.01
673.56	59180.15
673.76	59291.97
673.96	59567.79
674.15	59321.46
674.35	59404.45
674.54	59209.07
674.74	59103.23
674.94	59189.90
675.13	59429.19
675.33	58780.31
675.52	59537.24
675.72	59347.68
675.91	59237.66
676.11	59601.30
676.31	58934.40
676.50	59132.64
676.70	59062.27
676.89	59208.09
677.09	59199.98
677.28	59189.00
677.48	58423.96
677.68	58871.07
677.87	58580.34
678.07	58567.07
678.26	58606.07
678.46	58776.46
678.65	58558.23
678.85	58761.06
679.04	58323.04
679.24	58595.91
679.44	58431.25
679.63	58766.71
679.83	58526.20
680.02	58530.86
680.22	58101.45
680.41	58200.49
680.61	57893.21
680.80	57870.68
681.00	57985.70
681.19	58006.26
681.39	57880.84
681.59	57783.77
681.78	57591.67
681.98	57983.48
682.17	57224.83
682.37	57669.08
682.56	57371.06
682.76	57764.19
682.95	57425.54
683.15	57629.51
683.34	57372.86
683.54	57713.73
683.73	57696.52
683.93	57255.14
684.12	57641.88
684.32	57786.80
684.51	57017.50
684.71	57420.95
684.90	57195.34
685.10	57112.69
685.29	56825.73
685.49	56990.06
685.68	56983.01
685.88	56923.95
686.07	56723.25
686.27	57233.76
686.46	57096.30
686.66	56873.65
686.85	57234.66
687.05	56961.06
687.24	56797.14
687.44	56990.96
687.63	56810.57
687.83	56018.01
688.02	56613.07
688.22	56749.79
688.41	56362.48
688.61	56427.11
688.80	56744.22
689.00	56253.69
689.19	56143.02
689.39	56732.17
689.58	56534.91
689.77	56338.15
689.97	56438.66
690.16	56051.18
690.36	55603.25
690.55	55443.67
690.75	56131.87
690.94	55642.16
691.14	55858.84
691.33	55330.95
691.53	55766.68
691.72	55533.29
691.91	55541.16
692.11	55405.50
692.30	55489.39
692.50	55628.89
692.69	55119.77
692.89	55264.52
693.08	55189.15
693.28	55159.99
693.47	55236.50
693.66	55133.53
693.86	54933.32
694.05	54976.82
694.25	54927.59
694.44	55269.02
694.64	54974.61
694.83	54871.14
695.02	54812.57
695.22	55098.63
695.41	54565.75
695.61	54444.59
695.80	54406.99
695.99	54308.04
696.19	54407.16
696.38	54206.37
696.58	53845.85
696.77	54690.02
696.96	54632.11
697.16	54325.16
697.35	54155.99
697.55	54123.14
697.74	53834.71
697.93	54290.75
698.13	53717.97
698.32	53997.56
698.52	53636.47
698.71	53138.40
698.90	54046.96
699.10	53504.17
699.29	53531.45
699.49	54039.01
699.68	53494.75
699.87	53468.86
700.07	53754.02
700.26	53465.58
700.45	53355.07
700.65	53056.07
700.84	53441.66
701.04	52933.85
701.23	53199.27
701.42	53015.44
701.62	52816.05
701.81	52944.01
702.00	52759.03
702.20	52306.84
702.39	52766.16
702.58	53055.33
702.78	52563.08
702.97	52612.56
703.17	52628.95
703.36	52572.75
703.55	52341.17
703.75	52166.11
703.94	52404.49
704.13	51994.16
704.33	51908.55
704.52	52384.42
704.71	52202.81
704.91	52176.18
705.10	51956.15
705.29	52090.17
705.49	52188.80
705.68	52130.55
705.87	52079.19
706.07	51626.02
706.26	52092.30
706.45	51436.62
706.65	51225.51
706.84	51707.20
707.03	51970.89
707.23	51184.39
707.42	51032.84
707.61	51593.74
707.80	51061.68
708.00	51055.04
708.19	50848.77
708.38	51263.28
708.58	50448.84
708.77	51163.09
708.96	50524.95
709.16	50390.93
709.35	51329.80
709.54	50824.44
709.74	50805.68
709.93	50459.08
710.12	51197.09
710.31	51260.82
710.51	50569.51
710.70	50512.90
710.89	50622.92
711.09	49947.58
711.28	49985.51
711.47	50372.17
711.66	50190.31
711.86	50132.47
712.05	50164.26
712.24	50351.44
712.43	49908.18
712.63	49363.34
712.82	49996.82
713.01	49669.39
713.21	49212.12
713.40	49349.08
713.59	49868.94
713.78	49054.09
713.98	49738.03
714.17	49393.98
714.36	49418.88
714.55	48825.05
714.75	49057.21
714.94	48999.86
715.13	49222.60
715.32	48580.93
715.52	48944.00
715.71	48537.11
715.90	48644.75
716.09	48490.66
716.29	48855.03
716.48	48647.86
716.67	47982.11
716.86	48478.12
717.06	48444.70
717.25	48613.78
717.44	48713.64
717.63	48728.47
717.82	48116.78
718.02	48136.52
718.21	48310.76
718.40	48367.62
718.59	48091.30
718.79	47787.71
718.98	47763.46
719.17	48087.86
719.36	48132.43
719.55	47822.86
719.75	47683.76
719.94	47521.89
720.13	47726.44
720.32	47553.51
720.51	47137.93
720.71	47008.75
720.90	46506.09
721.09	46970.65
721.28	46706.63
721.47	47239.68
721.67	46987.53
721.86	47085.59
722.05	47018.82
722.24	46462.43
722.43	46973.77
722.63	46615.21
722.82	46632.08
723.01	46662.97
723.20	46243.87
723.39	46309.16
723.58	46550.66
723.78	45901.94
723.97	46465.54
724.16	45886.87
724.35	46026.46
724.54	45715.41
724.73	46076.76
724.93	45817.73
725.12	46174.81
725.31	45285.50
725.50	45768.33
725.69	46013.68
725.88	45594.01
726.08	45069.07
726.27	45714.59
726.46	44749.10
726.65	45702.22
726.84	44915.48
727.03	45196.46
727.23	45506.68
727.42	45052.28
727.61	44984.86
727.80	44832.25
727.99	45027.13
728.18	44998.22
728.37	44784.41
728.56	44545.12
728.76	44471.48
728.95	44683.24
729.14	44553.64
729.33	44489.58
729.52	44426.75
729.71	44331.07
729.90	44168.87
730.09	43863.89
730.29	44189.76
730.48	43603.30
730.67	44123.08
730.86	43684.07
731.05	44140.85
731.24	43923.60
731.43	43934.75
731.62	43699.56
731.81	43565.95
732.01	44084.17
732.20	43496.32
732.39	43787.62
732.58	43611.41
732.77	42885.78
732.96	43499.68
733.15	43463.06
733.34	43113.35
733.53	43228.44
733.72	43194.20
733.92	43147.51
734.11	42960.73
734.30	42927.96
734.49	43236.96
734.68	42930.34
734.87	42940.66
735.06	42850.96
735.25	42983.10
735.44	42605.70
735.63	42754.21
735.82	42733.16
736.01	42495.19
736.20	42406.55
736.40	42766.26
736.59	42408.19
736.78	42603.89
736.97	42061.43
737.16	42228.54
737.35	42349.29
737.54	42267.62
737.73	42016.37
737.92	42214.70
738.11	42329.30
738.30	42002.04
738.49	41996.63
738.68	41931.91
738.87	42028.33
739.06	41769.80
739.25	41907.17
739.44	41924.38
739.63	41684.93
739.82	41390.02
740.01	41699.67
740.20	41234.87
740.39	41200.38
740.59	41184.82
740.78	41199.23
740.97	40978.79
741.16	40739.18
741.35	40963.23
741.54	40837.81
741.73	40875.41
741.92	40734.59
742.11	40835.10
742.30	40912.60
742.49	40559.53
742.68	40945.45
742.87	40882.29
743.06	40420.60
743.25	40677.49
743.44	40411.34
743.63	40616.87
743.82	40301.08
744.01	40156.16
744.20	40011.98
744.39	40299.11
744.58	40120.12
744.77	39840.12
744.96	39522.27
745.15	40020.18
745.34	39691.76
745.53	39837.83
745.72	39533.42
745.91	39522.60
746.10	39343.04
746.29	39703.97
746.48	39622.30
746.67	39475.58
746.86	39439.37
747.04	39316.41
747.23	39055.26
747.42	39471.81
747.61	39092.20
747.80	39638.68
747.99	38809.75
748.18	39370.07
748.37	39290.85
748.56	38818.02
748.75	39091.30
748.94	38950.56
749.13	38905.92
749.32	38585.37
749.51	38703.09
749.70	38768.21
749.89	38487.07
750.08	38672.12
750.27	38142.84
750.46	38387.62
750.65	38765.18
750.84	38182.17
751.02	38417.60
751.21	38245.41
751.40	38462.57
751.59	38409.57
751.78	38127.36
751.97	38189.21
752.16	37866.94
752.35	38081.08
752.54	37713.43
752.73	38071.82
752.92	37650.92
753.11	37644.45
753.30	37752.67
753.49	37851.54
753.67	37663.21
753.86	37413.03
754.05	37623.81
754.24	37299.90
754.43	37279.26
754.62	37389.68
754.81	37080.19
755.00	37245.02
755.19	37120.50
755.38	36789.46
755.56	37086.83
755.75	37360.68
755.94	36884.16
756.13	36933.81
756.32	36998.60
756.51	36858.93
756.70	36941.59
756.89	36760.14
757.08	36620.55
757.26	36764.81
757.45	36743.02
757.64	36410.18
757.83	36762.76
758.02	36489.56
758.21	36468.10
758.40	36451.63
758.59	36532.57
758.77	36216.61
758.96	36329.98
759.15	36348.99
759.34	35944.80
759.53	36193.92
759.72	36093.81
759.91	35777.36
760.09	35963.97
760.28	36054.24
760.47	35574.69
760.66	36000.83
760.85	35464.84
761.04	35860.34
761.23	35661.53
761.41	35559.13
761.60	35703.39
761.79	35437.40
761.98	35172.06
762.17	35589.76
762.36	35183.69
762.54	35609.59
762.73	35373.25
762.92	35108.74
763.11	35452.88
763.30	35522.02
763.49	35359.25
763.67	35092.11
763.86	35187.46
764.05	35315.01
764.24	35108.16
764.43	35348.51
764.61	34837.75
764.80	34871.99
764.99	35165.02
765.18	34740.51
765.37	34926.55
765.55	34880.27
765.74	34560.54
765.93	34457.16
766.12	34621.08
766.31	34603.38
766.49	34520.97
766.68	34661.05
766.87	34602.89
767.06	34348.78
767.25	34401.70
767.43	34418.33
767.62	34311.83
767.81	34472.39
768.00	34256.78
768.19	34022.66
768.37	34080.99
768.56	34088.69
768.75	34251.38
768.94	34304.21
769.12	34012.01
769.31	34002.59
769.50	33947.95
769.69	34012.01
769.88	33496.33
770.06	34040.68
770.25	33596.35
770.44	33552.86
770.63	33852.02
770.81	33661.56
771.00	33530.00
771.19	33647.47
771.38	33483.14
771.56	33637.23
771.75	32964.02
771.94	33486.34
772.13	33394.83
772.31	33216.74
772.50	33539.83
772.69	33330.61
772.88	33653.53
773.06	33164.72
773.25	33366.49
773.44	33334.46
773.62	33202.73
773.81	33285.55
774.00	33179.88
774.19	33374.03
774.37	33160.05
774.56	33427.93
774.75	32956.49
774.94	33267.70
775.12	32982.54
775.31	33130.32
775.50	33071.42
775.68	32944.36
775.87	32812.96
776.06	32650.27
776.25	32842.78
776.43	32566.55
776.62	32903.08
776.81	32386.09
776.99	32597.93
777.18	32559.67
777.37	32101.17
777.55	32395.67
777.74	32465.88
777.93	32336.61
778.12	32325.55
778.30	32255.10
778.49	32188.17
778.68	32375.76
778.86	32143.52
779.05	32399.03
779.24	32396.82
779.42	32253.54
779.61	32065.13
779.80	32123.95
779.98	32234.86
780.17	32324.24
780.36	31960.11
780.54	32267.63
780.73	31602.94
780.92	32082.41
781.10	31801.92
781.29	31775.79
781.48	31590.16
781.66	31644.97
781.85	31695.92
782.04	31434.85
782.22	31594.75
782.41	31372.83
782.60	31609.01
782.78	31588.12
782.97	31732.05
783.16	31266.42
783.34	31295.01
783.53	31407.73
783.71	31134.04
783.90	31205.23
784.09	31152.88
784.27	31049.42
784.46	31082.27
784.65	31118.31
784.83	30924.74
785.02	30935.39
785.20	31354.65
785.39	30716.91
785.58	31234.39
785.76	31109.96
785.95	31097.42
786.14	31119.62
786.32	31156.40
786.51	30957.10
786.69	31251.18
786.88	31071.37
787.07	31064.65
787.25	31047.53
787.44	31024.60
787.62	30944.73
787.81	31134.86
788.00	31092.92
788.18	30834.14
788.37	30772.53
788.55	31194.58
788.74	30835.36
788.93	30912.70
789.11	31192.45
789.30	31066.95
789.48	30926.87
789.67	31187.94
789.86	31043.03
790.04	31195.72
790.23	31095.29
790.41	30991.58
790.60	31202.44
790.78	31273.14
790.97	30931.37
791.16	31068.26
791.34	31453.52
791.53	30929.98
791.71	31353.91
791.90	30998.71
792.08	31140.43
792.27	31083.41
792.46	30973.23
792.64	30977.82
792.83	30818.41
793.01	30885.74
793.20	30863.54
793.38	30814.15
793.57	30820.05
793.75	30851.34
793.94	30909.42
794.12	31259.38
794.31	30952.75
794.50	31249.55
794.68	31232.34
794.87	31098.57
795.05	31385.12
795.24	31117.00
795.42	31059.99
795.61	31443.77
795.79	31374.47
795.98	30983.64
796.16	31321.22
796.35	31312.13
796.53	31026.81
796.72	31276.66
796.90	31307.95
797.09	31145.67
797.27	31120.85
797.46	31086.04
797.64	31194.17
797.83	31172.79
798.01	31242.09
798.20	31327.78
798.38	31027.22
798.57	31319.18
798.75	31120.93
798.94	30742.30
799.12	31569.93
799.31	31159.27
799.49	31165.09
799.68	31011.16
799.86	31098.24
800.05	31061.13
800.23	31041.96
800.42	30907.21
800.60	31280.92
800.79	30854.86
800.97	31043.52
801.16	31293.54
801.34	30857.97
801.53	30780.40
801.71	30999.20
801.90	30762.62
802.08	31189.34
802.27	30927.03
802.45	30794.65
802.64	31031.72
802.82	31100.86
803.00	30664.97
803.19	30844.29
803.37	31154.03
803.56	30823.16
803.74	30832.50
803.93	30914.42
804.11	30677.83
804.30	30598.13
804.48	30757.71
804.67	30765.49
804.85	30598.62
805.03	30894.67
805.22	30552.09
805.40	30470.33
805.59	30634.50
805.77	30650.15
805.96	30425.28
806.14	30483.44
806.32	30611.48
806.51	30774.50
806.69	30474.27
806.88	30285.69
807.06	30301.34
807.25	30274.55
807.43	30256.12
807.61	30205.16
807.80	30123.98
807.98	30297.24
808.17	30077.78
808.35	30020.68
808.53	30425.69
808.72	30172.48
808.90	30168.38
809.09	30295.52
809.27	30247.43
809.45	30031.74
809.64	30198.69
809.82	30013.80
810.01	30079.42
810.19	30120.21
810.37	29959.65
810.56	29802.12
810.74	30027.32
810.93	29606.17
811.11	29680.64
811.29	29486.49
811.48	29605.03
811.66	29569.56
811.84	29492.88
812.03	29399.82
812.21	29408.26
812.40	29568.49
812.58	29621.49
812.76	29353.29
812.95	29638.12
813.13	29207.56
813.31	29464.13
813.50	29524.17
813.68	29461.75
813.86	29554.81
814.05	29590.53
814.23	29183.88
814.42	29348.62
814.60	29176.26
814.78	29335.27
814.97	29279.81
815.15	29201.49
815.33	29344.28
815.52	29158.65
815.70	29176.51
815.88	29167.33
816.07	28853.50
816.25	28957.70
816.43	28965.73
816.62	28636.17
816.80	28838.92
816.98	28686.47
817.17	28728.33
817.35	28722.27
817.53	28719.48
817.72	28814.18
817.90	28483.40
818.08	28547.37
818.26	28650.76
818.45	28417.86
818.63	28530.25
818.81	28421.38
819.00	28136.80
819.18	28338.48
819.36	28285.07
819.55	28308.25
819.73	28115.25
819.91	28287.86
820.09	28207.17
820.28	28396.56
820.46	28126.72
820.64	28511.25
820.83	28194.96
821.01	28194.39
821.19	28143.60
821.38	28152.36
821.56	28032.51
821.74	28133.85
821.92	27929.71
822.11	28160.14
822.29	27722.53
822.47	27849.92
822.65	27916.68
822.84	27949.37
823.02	27564.43
823.20	27992.21
823.39	27503.73
823.57	27688.29
823.75	27731.54
823.93	27499.31
824.12	27624.31
824.30	27444.91
824.48	27466.46
824.66	27726.38
824.85	27150.74
825.03	27507.01
825.21	27594.00
825.39	27409.19
825.58	27490.46
825.76	27391.25
825.94	27444.42
826.12	27270.42
826.31	27181.87
826.49	27222.91
826.67	27208.17
826.85	27149.10
827.03	27106.50
827.22	27260.10
827.40	27096.26
827.58	27034.83
827.76	27106.75
827.95	26905.07
828.13	26908.75
828.31	26835.35
828.49	26877.30
828.67	26751.55
828.86	26641.04
829.04	26704.45
829.22	26548.23
829.40	26519.15
829.58	26415.19
829.77	26509.97
829.95	26516.77
830.13	26508.09
830.31	26459.43
830.49	26488.76
830.68	26557.40
830.86	26415.36
831.04	26333.52
831.22	26410.11
831.40	26303.54
831.59	26393.32
831.77	26221.21
831.95	26374.40
832.13	25987.99
832.31	26211.95
832.50	26132.49
832.68	25975.21
832.86	25930.23
833.04	26087.19
833.22	25709.71
833.40	26122.41
833.59	25807.11
833.77	26031.73
833.95	25402.27
834.13	26166.00
834.31	25761.89
834.49	25754.27
834.67	25774.10
834.86	25824.23
835.04	25668.34
835.22	25707.58
835.40	25642.78
835.58	25574.05
835.76	25568.97
835.95	25620.66
836.13	25447.24
836.31	25459.28
836.49	25626.89
836.67	25565.86
836.85	25535.30
837.03	25430.45
837.21	25492.38
837.40	25222.62
837.58	25011.84
837.76	25282.67
837.94	25157.66
838.12	25355.57
838.30	25074.51
838.48	25093.27
838.66	25058.95
838.85	24967.44
839.03	24992.18
839.21	24892.49
839.39	24814.09
839.57	24896.34
839.75	24774.85
839.93	24787.14
840.11	24811.88
840.29	24739.05
840.47	24823.18
840.66	24716.03
840.84	24679.99
841.02	24431.28
841.20	24530.49
841.38	24456.43
841.56	24484.86
841.74	24692.60
841.92	24459.22
842.10	24356.74
842.28	24599.30
842.46	24317.74
842.65	24294.40
842.83	24479.53
843.01	24534.01
843.19	24211.25
843.37	24363.46
843.55	24171.93
843.73	24445.54
843.91	24411.21
844.09	24294.89
844.27	24539.99
844.45	24201.26
844.63	24149.98
844.81	24231.16
844.99	24191.10
845.17	24020.13
845.35	24222.15
845.54	23962.55
845.72	23961.15
845.90	23883.08
846.08	23886.20
846.26	23582.36
846.44	23923.14
846.62	23538.29
846.80	23576.87
846.98	23515.43
847.16	23574.66
847.34	23512.07
847.52	23528.70
847.70	23433.35
847.88	23588.09
848.06	23375.11
848.24	23539.43
848.42	23460.96
848.60	23356.43
848.78	23458.91
848.96	23347.99
849.14	23323.01
849.32	23476.93
849.50	23241.99
849.68	23308.34
849.86	23322.68
850.04	23174.32
850.22	23111.08
850.40	22950.60
850.58	23113.62
850.76	23466.53
850.94	22723.03
851.12	23117.96
851.30	22937.82
851.48	23093.71
851.66	22852.63
851.84	22872.53
852.02	22835.59
852.20	22932.74
852.38	22650.86
852.56	22781.28
852.74	22774.15
852.92	22649.63
853.10	22554.53
853.28	22666.75
853.46	22236.03
853.64	22501.52
853.82	22302.13
854.00	22299.76
854.18	22154.93
854.36	22102.99
854.54	22266.75
854.72	22031.64
854.90	21988.79
855.07	22170.90
855.25	22080.05
855.43	22148.45
855.61	22136.33
855.79	21957.09
855.97	22042.45
856.15	22007.14
856.33	21930.63
856.51	22041.80
856.69	21786.13
856.87	22050.81
857.05	21850.02
857.23	21907.78
857.41	21716.41
857.59	21780.48
857.77	21774.74
857.94	21726.98
858.12	21814.39
858.30	21670.38
858.48	21636.30
858.66	21513.58
858.84	21660.96
859.02	21385.22
859.20	21320.26
859.38	21606.81
859.56	21496.63
859.74	21500.48
859.92	21526.94
860.09	21387.43
860.27	21543.57
860.45	21309.69
860.63	21328.20
860.81	21486.55
860.99	21356.63
861.17	21154.45
861.35	20819.16
861.53	20684.73
861.70	20633.37
861.88	21001.76
862.06	20991.84
862.24	20675.47
862.42	20657.21
862.60	20922.38
862.78	20875.27
862.96	20885.27
863.14	20726.75
863.31	20749.77
863.49	20699.56
863.67	20674.49
863.85	20616.41
864.03	20716.35
864.21	20693.00
864.39	20650.41
864.56	20544.81
864.74	20597.49
864.92	20464.70
865.10	20387.53
865.28	20509.92
865.46	20634.84
865.64	20223.69
865.81	20457.00
865.99	20178.64
866.17	20449.54
866.35	20259.00
866.53	20179.54
866.71	20195.18
866.88	20180.68
867.06	20007.67
867.24	20102.70
867.42	19929.44
867.60	20017.50
867.78	19897.74
867.95	20108.02
868.13	19813.85
868.31	20009.23
868.49	20020.45
868.67	19843.34
868.84	19811.97
869.02	19859.23
869.20	19489.86
869.38	19679.75
869.56	19554.17
869.73	19436.21
869.91	19573.58
870.09	19502.81
870.27	19327.99
870.45	19448.74
870.62	19254.43
870.80	19432.93
870.98	19330.04
871.16	19342.08
871.34	19243.29
871.51	19265.65
871.69	19060.69
871.87	19124.26
872.05	19077.07
872.23	19092.39
872.40	18899.23
872.58	19041.52
872.76	18911.27
872.94	18860.15
873.11	18847.13
873.29	18707.62
873.47	18872.61
873.65	18729.98
873.83	18763.16
874.00	18735.56
874.18	18807.15
874.36	18782.66
874.54	18759.39
874.71	18619.39
874.89	18480.79
875.07	18580.81
875.25	18525.84
875.42	18552.30
875.60	18552.88
875.78	18623.98
875.96	18407.14
876.13	18590.40
876.31	18338.90
876.49	18368.64
876.66	18182.60
876.84	18517.65
877.02	18288.61
877.20	18283.61
877.37	18321.13
877.55	18263.62
877.73	18226.92
877.91	18157.21
878.08	18261.00
878.26	18195.63
878.44	18191.61
878.61	18129.44
878.79	18063.33
878.97	18082.74
879.15	18226.10
879.32	18116.74
879.50	17996.81
879.68	18194.32
879.85	17956.92
880.03	18136.81
880.21	17984.77
880.38	18110.76
880.56	17944.30
880.74	18175.97
880.92	17892.94
881.09	18001.89
881.27	17938.32
881.45	18024.50
881.62	17941.68
881.80	17780.87
881.98	17819.29
882.15	17952.00
882.33	17787.18
882.51	17758.02
882.68	17673.23
882.86	17801.52
883.04	17626.13
883.21	17684.62
883.39	17841.49
883.57	17702.15
883.74	17730.08
883.92	17764.49
884.10	17756.54
884.27	17696.58
884.45	17620.89
884.63	17784.72
884.80	17691.75
884.98	17749.09
885.16	17652.43
885.33	17672.33
885.51	17705.35
885.69	17709.03
885.86	17600.49
886.04	17700.18
886.21	17491.21
886.39	17691.34
886.57	17375.21
886.74	17673.07
886.92	17644.48
887.10	17620.31
887.27	17558.14
887.45	17535.04
887.62	17545.93
887.80	17571.74
887.98	17743.60
888.15	17721.57
888.33	17592.30
888.51	17776.04
888.68	17630.96
888.86	17707.97
889.03	17561.66
889.21	17682.90
889.39	17691.34
889.56	17700.76
889.74	17672.91
889.91	17683.39
890.09	17632.44
890.27	17670.45
890.44	17644.23
890.62	17690.19
890.79	17747.70
890.97	17732.62
891.14	17712.39
891.32	17726.89
891.50	17626.29
891.67	17712.47
891.85	17610.73
892.02	17590.74
892.20	17673.56
892.38	17568.79
892.55	17500.47
892.73	17620.07
892.90	17460.41
893.08	17624.49
893.25	17535.45
893.43	17737.38
893.60	17495.72
893.78	17623.92
893.96	17532.74
894.13	17601.23
894.31	17672.00
894.48	17538.56
894.66	17568.05
894.83	17572.31
895.01	17578.86
895.18	17626.79
895.36	17530.12
895.53	17653.08
895.71	17559.28
895.89	17632.52
896.06	17479.09
896.24	17502.76
896.41	17445.09
896.59	17517.59
896.76	17313.61
896.94	17426.25
897.11	17391.92
897.29	17480.23
897.46	17271.59
897.64	17321.56
897.81	17267.49
897.99	17110.04
898.16	17381.27
898.34	17302.63
898.51	17303.12
898.69	17212.19
898.86	17231.77
899.04	17266.10
899.21	17130.60
899.39	17184.42
899.56	17106.93
899.74	17311.73
899.91	17115.61
900.09	17044.51
900.26	17085.30
900.44	16937.85
900.61	16922.20
900.79	17146.91
900.96	16965.70
901.14	17027.14
901.31	16898.53
901.49	16868.95
901.66	16898.77
901.84	16919.33
902.01	16769.67
902.19	16847.33
902.36	16664.49
902.54	16779.42
902.71	16721.17
902.88	16874.44
903.06	16579.21
903.23	16888.53
903.41	16705.61
903.58	16653.34
903.76	16561.84
903.93	16722.57
904.11	16747.96
904.28	16622.30
904.45	16604.68
904.63	16586.09
904.80	16480.58
904.98	16587.15
905.15	16384.57
905.33	16557.99
905.50	16350.90
905.68	16431.43
905.85	16355.90
906.02	16314.45
906.20	16429.38
906.37	16197.71
906.55	16147.33
906.72	16290.61
906.90	16086.88
907.07	15926.40
907.24	16017.16
907.42	15901.82
907.59	15924.35
907.77	15873.97
907.94	15826.95
908.11	15846.53
908.29	15773.54
908.46	15745.28
908.64	15596.02
908.81	15641.57
908.98	15512.79
909.16	15625.10
909.33	15481.82
909.51	15459.38
909.68	15443.90
909.85	15418.01
910.03	15404.90
910.20	15204.37
910.37	15258.84
910.55	15165.13
910.72	15132.93
910.90	15071.99
911.07	15017.84
911.24	14955.01
911.42	15080.01
911.59	14902.82
911.76	14962.13
911.94	14849.08
912.11	14803.21
912.29	14853.59
912.46	14718.67
912.63	14783.79
912.81	14596.28
912.98	14719.90
913.15	14573.18
913.33	14651.66
913.50	14599.89
913.67	14543.45
913.85	14516.74
914.02	14513.22
914.19	14454.15
914.37	14414.83
914.54	14455.55
914.71	14360.27
914.89	14351.18
915.06	14342.50
915.23	14229.29
915.41	14213.07
915.58	14155.81
915.75	14113.37
915.93	14142.29
916.10	14040.63
916.27	14068.89
916.45	14009.99
916.62	13899.73
916.79	13979.68
916.97	13839.93
917.14	13857.87
917.31	13770.79
917.49	13758.34
917.66	13759.81
917.83	13661.10
918.00	13681.25
918.18	13621.61
918.35	13528.39
918.52	13580.33
918.70	13461.63
918.87	13485.14
919.04	13467.20
919.21	13427.14
919.39	13286.65
919.56	13364.14
919.73	13239.87
919.91	13252.16
920.08	13196.54
920.25	13130.35
920.42	13262.15
920.60	13092.01
920.77	12987.07
920.94	13062.85
921.11	12882.38
921.29	13010.99
921.46	12785.31
921.63	12917.52
921.81	12786.62
921.98	12815.45
922.15	12720.34
922.32	12780.80
922.50	12705.68
922.67	12702.49
922.84	12621.30
923.01	12534.80
923.19	12502.52
923.36	12501.95
923.53	12299.28
923.70	12415.69
923.87	12361.21
924.05	12405.04
924.22	12277.98
924.39	12297.15
924.56	12163.54
924.74	12214.33
924.91	12206.30
925.08	12165.43
925.25	12123.32
925.43	12097.52
925.60	12003.96
925.77	12078.10
925.94	12002.82
926.11	11974.31
926.29	11899.19
926.46	11939.66
926.63	11901.07
926.80	11902.30
926.97	11778.85
927.15	11817.84
927.32	11715.12
927.49	11698.98
927.66	11717.17
927.83	11762.47
928.01	11582.90
928.18	11539.57
928.35	11444.70
928.52	11564.22
928.69	11376.79
928.87	11386.62
929.04	11357.46
929.21	11367.70
929.38	11281.77
929.55	11333.62
929.72	11194.03
929.90	11221.89
930.07	11201.24
930.24	11146.11
930.41	11106.05
930.58	11118.67
930.75	11090.24
930.93	11010.70
931.10	10987.52
931.27	10884.79
931.44	10864.47
931.61	10847.35
931.78	10840.88
931.95	10796.89
932.13	10746.02
932.30	10816.88
932.47	10625.11
932.64	10690.15
932.81	10668.77
932.98	10667.87
933.15	10643.54
933.33	10548.92
933.50	10589.80
933.67	10499.44
933.84	10535.08
934.01	10476.18
934.18	10488.88
934.35	10416.95
934.52	10365.67
934.70	10434.97
934.87	10369.36
935.04	10333.72
935.21	10325.61
935.38	10305.46
935.55	10231.16
935.72	10280.39
935.89	10189.96
936.06	10211.09
936.24	10121.80
936.41	10173.82
936.58	10061.59
936.75	10027.02
936.92	10023.99
937.09	10021.20
937.26	9954.36
937.43	9984.01
937.60	9979.10
937.77	9892.92
937.94	9898.82
938.12	9903.81
938.29	9851.79
938.46	9867.93
938.63	9781.18
938.80	9809.11
938.97	9751.69
939.14	9730.64
939.31	9633.81
939.48	9684.93
939.65	9627.58
939.82	9560.66
939.99	9602.52
940.16	9569.17
940.33	9559.67
940.50	9526.25
940.67	9470.87
940.85	9528.54
941.02	9471.36
941.19	9463.25
941.36	9413.45
941.53	9393.46
941.70	9394.93
941.87	9316.70
942.04	9319.08
942.21	9290.16
942.38	9258.21
942.55	9170.23
942.72	9206.44
942.89	9172.36
943.06	9094.13
943.23	9095.68
943.40	9041.70
943.57	9098.47
943.74	9051.04
943.91	9035.06
944.08	9022.53
944.25	9048.17
944.42	8957.65
944.59	8995.33
944.76	8971.74
944.93	8952.65
945.10	8888.27
945.27	8891.54
945.44	8802.17
945.61	8863.69
945.78	8777.59
945.95	8793.40
946.12	8675.85
946.29	8731.80
946.46	8693.55
946.63	8662.58
946.80	8640.38
946.97	8619.49
947.14	8596.96
947.31	8654.14
947.48	8552.73
947.65	8572.22
947.82	8545.52
947.99	8579.92
948.16	8434.11
948.33	8528.07
948.50	8409.21
948.67	8435.26
948.84	8379.71
949.01	8356.61
949.18	8374.31
949.35	8357.35
949.52	8282.07
949.68	8309.92
949.85	8276.82
950.02	8249.96
950.19	8250.77
950.36	8203.34
950.53	8201.21
950.70	8170.08
950.87	8181.96
951.04	8221.69
951.21	8115.12
951.38	8080.14
951.55	8105.20
951.72	8096.19
951.89	8025.91
952.06	8083.99
952.23	8060.48
952.39	8049.17
952.56	7971.60
952.73	8007.07
952.90	7942.84
953.07	8046.63
953.24	7912.53
953.41	7888.45
953.58	7857.24
953.75	7891.72
953.92	7779.82
954.09	7766.47
954.25	7735.34
954.42	7741.08
954.59	7699.13
954.76	7668.74
954.93	7687.99
955.10	7693.73
955.27	7652.03
955.44	7649.98
955.61	7599.27
955.77	7671.45
955.94	7639.91
956.11	7655.96
956.28	7607.47
956.45	7594.52
956.62	7563.72
956.79	7606.48
956.96	7566.51
957.12	7541.77
957.29	7512.44
957.46	7500.48
957.63	7468.04
957.80	7440.35
957.97	7401.28
958.14	7479.92
958.30	7371.54
958.47	7390.46
958.64	7367.94
958.81	7423.31
958.98	7307.81
959.15	7323.70
959.32	7335.58
959.48	7280.04
959.65	7243.67
959.82	7276.35
959.99	7208.44
960.16	7253.09
960.33	7205.08
960.49	7195.91
960.66	7171.82
960.83	7169.04
961.00	7166.42
961.17	7129.06
961.33	7103.50
961.50	7113.66
961.67	7052.96
961.84	7074.26
962.01	7004.71
962.18	7049.60
962.34	6963.34
962.51	6991.93
962.68	6936.47
962.85	7022.57
963.02	6874.70
963.18	6929.26
963.35	6875.03
963.52	6877.49
963.69	6900.34
963.86	6895.18
964.02	6787.95
964.19	6832.92
964.36	6801.55
964.53	6771.24
964.69	6720.61
964.86	6803.02
965.03	6694.40
965.20	6754.53
965.37	6655.49
965.53	6680.56
965.70	6629.36
965.87	6673.02
966.04	6617.72
966.20	6622.80
966.37	6586.84
966.54	6554.89
966.71	6590.94
966.87	6544.16
967.04	6555.55
967.21	6541.87
967.38	6495.58
967.54	6530.56
967.71	6482.97
967.88	6500.01
968.05	6499.02
968.21	6428.66
968.38	6389.09
968.55	6443.07
968.72	6389.66
968.88	6378.03
969.05	6393.84
969.22	6373.52
969.39	6389.50
969.55	6351.82
969.72	6339.94
969.89	6310.53
970.05	6338.05
970.22	6309.79
970.39	6271.13
970.56	6306.19
970.72	6254.50
970.89	6299.47
971.06	6259.33
971.22	6216.57
971.39	6235.25
971.56	6265.15
971.73	6172.00
971.89	6224.76
972.06	6165.37
972.23	6165.45
972.39	6119.33
972.56	6179.21
972.73	6085.66
972.89	6101.39
973.06	6117.86
973.23	6114.83
973.39	6056.91
973.56	6088.86
973.73	6061.33
973.89	6045.28
974.06	6005.05
974.23	6031.27
974.39	5972.94
974.56	5979.90
974.73	5952.05
974.89	5956.56
975.06	5925.84
975.23	6003.42
975.39	5908.64
975.56	5937.80
975.73	5884.72
975.89	5882.75
976.06	5886.93
976.23	5831.71
976.39	5826.23
976.56	5844.98
976.73	5801.90
976.89	5813.12
977.06	5798.13
977.23	5753.32
977.39	5753.40
977.56	5770.19
977.72	5712.28
977.89	5766.51
978.06	5760.61
978.22	5722.27
978.39	5707.85
978.56	5704.00
978.72	5656.33
978.89	5668.53
979.05	5657.72
979.22	5625.85
979.39	5626.10
979.55	5616.19
979.72	5576.78
979.88	5618.56
980.05	5579.49
980.22	5615.04
980.38	5570.64
980.55	5557.70
980.71	5555.89
980.88	5556.79
981.05	5533.20
981.21	5504.69
981.38	5491.42
981.54	5523.45
981.71	5478.32
981.88	5479.87
982.04	5469.39
982.21	5466.19
982.37	5419.50
982.54	5450.22
982.70	5419.83
982.87	5420.89
983.04	5372.89
983.20	5429.98
983.37	5371.49
983.53	5419.42
983.70	5399.43
983.86	5355.93
984.03	5377.39
984.20	5388.78
984.36	5338.97
984.53	5353.64
984.69	5303.17
984.86	5276.63
985.02	5290.48
985.19	5264.34
985.35	5238.05
985.52	5233.54
985.68	5227.24
985.85	5240.18
986.02	5218.63
986.18	5198.24
986.35	5200.20
986.51	5230.43
986.68	5190.04
986.84	5163.50
987.01	5151.95
987.17	5185.46
987.34	5145.07
987.50	5143.84
987.67	5107.22
987.83	5133.36
988.00	5129.83
988.16	5082.08
988.33	5097.56
988.49	5098.21
988.66	5069.87
988.82	5086.01
988.99	5050.05
989.15	5078.72
989.32	5020.55
989.48	5023.42
989.65	5015.23
989.81	5013.26
989.98	4991.96
990.14	4968.54
990.31	4977.22
990.47	4964.28
990.64	4968.21
990.80	4981.48
990.97	4936.18
991.13	4927.33
991.30	4930.28
991.46	4930.28
991.63	4871.30
991.79	4910.46
991.95	4837.55
992.12	4906.11
992.28	4872.12
992.45	4846.07
992.61	4833.86
992.78	4820.75
992.94	4828.05
993.11	4843.45
993.27	4794.62
993.44	4800.85
993.60	4798.64
993.76	4803.39
993.93	4821.25
994.09	4805.03
994.26	4794.54
994.42	4777.99
994.59	4748.42
994.75	4765.30
994.91	4756.12
995.08	4749.81
995.24	4710.66
995.41	4736.21
995.57	4703.94
995.74	4722.21
995.90	4664.95
996.06	4708.20
996.23	4672.32
996.39	4654.05
996.56	4656.43
996.72	4670.60
996.88	4674.86
997.05	4664.13
997.21	4633.08
997.38	4655.03
997.54	4614.73
997.70	4633.32
997.87	4628.57
998.03	4633.82
998.20	4570.49
998.36	4583.60
998.52	4551.00
998.69	4606.05
998.85	4547.72
999.02	4554.76
999.18	4558.12
999.34	4559.84
999.51	4535.68
999.67	4540.92
999.83	4534.45
1000.00	4528.22
1000.16	4506.02
1000.33	4516.75
1000.49	4506.35
1000.65	4497.99
1000.82	4494.55
1000.98	4459.33
1001.14	4447.29
1001.31	4473.66
1001.47	4448.60
1001.63	4446.14
1001.80	4426.97
1001.96	4437.62
1002.12	4417.14
1002.29	4427.38
1002.45	4414.11
1002.61	4406.08
1002.78	4382.90
1002.94	4423.12
1003.10	4369.96
1003.27	4396.91
1003.43	4357.75
1003.59	4359.31
1003.76	4365.61
1003.92	4375.12
1004.08	4340.14
1004.25	4356.11
1004.41	4350.46
1004.57	4333.50
1004.74	4331.45
1004.90	4365.20
1005.06	4300.98
1005.23	4314.66
1005.39	4314.82
1005.55	4310.24
1005.71	4304.83
1005.88	4279.52
1006.04	4303.77
1006.20	4281.32
1006.37	4246.91
1006.53	4240.77
1006.69	4249.04
1006.85	4261.00
1007.02	4240.93
1007.18	4249.78
1007.34	4212.92
1007.51	4229.30
1007.67	4201.45
1007.83	4199.97
1007.99	4166.31
1008.16	4202.68
1008.32	4173.35
1008.48	4194.57
1008.64	4159.10
1008.81	4180.56
1008.97	4147.30
1009.13	4159.75
1009.29	4163.77
1009.46	4160.57
1009.62	4151.72
1009.78	4118.63
1009.95	4171.30
1010.11	4131.08
1010.27	4103.97
1010.43	4117.89
1010.59	4114.78
1010.76	4125.18
1010.92	4091.43
1011.08	4118.71
1011.24	4069.89
1011.41	4107.57
1011.57	4055.39
1011.73	4084.55
1011.89	4041.79
1012.06	4078.49
1012.22	4034.66
1012.38	4065.63
1012.54	4034.42
1012.70	4036.30
1012.87	4003.12
1013.03	4046.62
1013.19	4010.41
1013.35	4021.31
1013.51	4005.09
1013.68	4015.66
1013.84	3975.11
1014.00	4001.08
1014.16	3950.20
1014.32	3975.76
1014.49	3947.75
1014.65	4004.68
1014.81	3962.82
1014.97	3950.86
1015.13	3954.46
1015.30	3960.03
1015.46	3941.68
1015.62	3955.69
1015.78	3942.50
1015.94	3956.92
1016.10	3917.68
1016.27	3929.48
1016.43	3899.58
1016.59	3949.55
1016.75	3901.95
1016.91	3902.45
1017.07	3878.93
1017.24	3903.43
1017.40	3890.32
1017.56	3873.69
1017.72	3849.44
1017.88	3858.05
1018.04	3860.75
1018.21	3857.64
1018.37	3851.82
1018.53	3861.49
1018.69	3845.51
1018.85	3842.48
1019.01	3822.66
1019.17	3845.02
1019.34	3832.98
1019.50	3834.13
1019.66	3807.09
1019.82	3807.34
1019.98	3803.16
1020.14	3837.81
1020.30	3812.66
1020.46	3810.29
1020.63	3784.81
1020.79	3801.85
1020.95	3785.30
1021.11	3792.35
1021.27	3766.05
1021.43	3780.39
1021.59	3795.46
1021.75	3770.88
1021.91	3749.42
1022.07	3760.48
1022.24	3753.52
1022.40	3756.30
1022.56	3751.22
1022.72	3751.71
1022.88	3721.90
1023.04	3737.13
1023.20	3728.70
1023.36	3728.70
1023.52	3735.66
1023.68	3714.93
1023.84	3706.25
1024.01	3731.97
1024.17	3694.95
1024.33	3711.74
1024.49	3713.62
1024.65	3708.46
1024.81	3692.16
1024.97	3704.04
1025.13	3674.06
1025.29	3696.26
1025.45	3663.24
1025.61	3688.06
1025.77	3651.28
1025.93	3677.01
1026.09	3648.42
1026.25	3691.75
1026.41	3644.07
1026.57	3668.81
1026.73	3658.74
1026.90	3656.77
1027.06	3645.22
1027.22	3661.93
1027.38	3652.59
1027.54	3665.29
1027.70	3636.05
1027.86	3652.51
1028.02	3637.52
1028.18	3629.74
1028.34	3632.36
1028.50	3653.99
1028.66	3597.05
1028.82	3614.58
1028.98	3613.11
1029.14	3602.21
1029.30	3616.30
1029.46	3603.77
1029.62	3618.19
1029.78	3595.25
1029.94	3602.95
1030.10	3612.70
1030.26	3586.81
1030.42	3581.73
1030.58	3569.69
1030.74	3598.12
1030.90	3578.62
1031.06	3577.97
1031.22	3556.42
1031.38	3571.90
1031.54	3565.68
1031.70	3564.20
1031.86	3559.37
1032.02	3561.58
1032.18	3544.21
1032.34	3552.73
1032.50	3543.40
1032.66	3562.89
1032.82	3537.33
1032.98	3543.15
1033.14	3534.55
1033.30	3575.67
1033.45	3534.47
1033.61	3543.89
1033.77	3525.21
1033.93	3547.16
1034.09	3526.36
1034.25	3522.34
1034.41	3520.87
1034.57	3509.15
1034.73	3506.53
1034.89	3513.99
1035.05	3496.46
1035.21	3515.71
1035.37	3506.53
1035.53	3494.33
1035.69	3489.41
1035.85	3512.76
1036.01	3486.13
1036.16	3497.60
1036.32	3485.64
1036.48	3508.99
1036.64	3478.76
1036.80	3485.15
1036.96	3469.91
1037.12	3469.75
1037.28	3478.43
1037.44	3464.10
1037.60	3473.68
1037.76	3462.30
1037.91	3455.91
1038.07	3461.07
1038.23	3457.22
1038.39	3459.26
1038.55	3467.05
1038.71	3461.56
1038.87	3437.39
1039.03	3468.77
1039.19	3456.07
1039.35	3449.43
1039.50	3473.19
1039.66	3457.30
1039.82	3436.90
1039.98	3438.87
1040.14	3433.05
1040.30	3443.86
1040.46	3408.88
1040.62	3418.31
1040.77	3445.50
1040.93	3457.22
1041.09	3426.17
1041.25	3423.79
1041.41	3409.46
1041.57	3425.35
1041.73	3425.35
1041.88	3425.35

