SpectraSuite Data File
++++++++++++++++++++++++++++++++++++
Date: Tue Sep 20 12:18:35 EDT 2022
User: Laboratoire
Dark Spectrum Present: No
Reference Spectrum Present: No
Number of Sampled Component Spectra: 1
Spectrometers: FLMT00174
Integration Time (usec): 15000 (FLMT00174)
Spectra Averaged: 25 (FLMT00174)
Boxcar Smoothing: 0 (FLMT00174)
Correct for Electrical Dark: No (FLMT00174)
Strobe/Lamp Enabled: No (FLMT00174)
Correct for Detector Non-linearity: No (FLMT00174)
Correct for Stray Light: No (FLMT00174)
Number of Pixels in Processed Spectrum: 3648
>>>>>Begin Processed Spectral Data<<<<<
345.74	3174.60
345.96	3174.60
346.18	3174.60
346.39	3191.06
346.61	3232.02
346.83	3218.92
347.05	3211.30
347.27	3228.99
347.49	3221.37
347.71	3221.86
347.93	3259.14
348.15	3231.86
348.36	3234.07
348.58	3236.86
348.80	3228.25
349.02	3238.74
349.24	3238.00
349.46	3286.66
349.68	3283.06
349.90	3296.98
350.11	3269.79
350.33	3289.37
350.55	3281.34
350.77	3284.94
350.99	3275.44
351.21	3293.05
351.43	3281.91
351.65	3293.38
351.86	3269.30
352.08	3311.40
352.30	3267.58
352.52	3312.22
352.74	3269.05
352.96	3270.52
353.18	3273.72
353.39	3268.39
353.61	3259.22
353.83	3286.66
354.05	3304.93
354.27	3280.27
354.49	3282.24
354.70	3277.73
354.92	3278.06
355.14	3279.62
355.36	3269.46
355.58	3279.45
355.80	3282.32
356.02	3286.01
356.23	3291.25
356.45	3281.75
356.67	3303.62
356.89	3308.70
357.11	3286.50
357.33	3309.19
357.54	3266.35
357.76	3285.27
357.98	3276.75
358.20	3303.62
358.42	3271.67
358.63	3295.59
358.85	3286.42
359.07	3276.50
359.29	3261.68
359.51	3279.21
359.73	3261.43
359.94	3288.87
360.16	3280.93
360.38	3268.31
360.60	3276.34
360.82	3290.02
361.03	3284.29
361.25	3289.78
361.47	3300.92
361.69	3293.54
361.91	3272.98
362.12	3277.57
362.34	3283.55
362.56	3303.70
362.78	3278.55
363.00	3308.12
363.21	3287.56
363.43	3313.61
363.65	3278.06
363.87	3300.42
364.09	3283.80
364.30	3288.71
364.52	3276.75
364.74	3307.39
364.96	3278.80
365.17	3296.57
365.39	3292.72
365.61	3269.13
365.83	3279.62
366.05	3288.87
366.26	3276.18
366.48	3286.01
366.70	3305.99
366.92	3300.26
367.13	3276.26
367.35	3305.34
367.57	3289.04
367.79	3290.68
368.01	3309.11
368.22	3303.46
368.44	3289.45
368.66	3297.64
368.88	3306.73
369.09	3304.44
369.31	3286.17
369.53	3291.00
369.75	3293.71
369.96	3308.37
370.18	3291.74
370.40	3319.18
370.62	3291.41
370.83	3283.06
371.05	3297.07
371.27	3297.23
371.49	3287.81
371.70	3301.82
371.92	3292.56
372.14	3310.34
372.36	3303.70
372.57	3313.61
372.79	3300.67
373.01	3298.21
373.22	3304.52
373.44	3297.23
373.66	3292.64
373.88	3311.40
374.09	3290.84
374.31	3301.16
374.53	3290.10
374.75	3339.09
374.96	3301.24
375.18	3316.15
375.40	3290.43
375.61	3302.80
375.83	3297.89
376.05	3303.05
376.27	3329.18
376.48	3297.23
376.70	3311.89
376.92	3319.27
377.13	3307.14
377.35	3320.41
377.57	3305.42
377.79	3298.95
378.00	3299.61
378.22	3335.24
378.44	3291.17
378.65	3321.97
378.87	3309.35
379.09	3327.54
379.30	3301.82
379.52	3326.31
379.74	3313.04
379.96	3315.91
380.17	3321.64
380.39	3304.85
380.61	3311.57
380.82	3323.94
381.04	3329.01
381.26	3325.74
381.47	3325.90
381.69	3344.17
381.91	3316.15
382.12	3351.62
382.34	3348.59
382.56	3343.76
382.77	3305.42
382.99	3332.78
383.21	3338.43
383.42	3354.49
383.64	3328.36
383.86	3337.53
384.07	3349.82
384.29	3345.15
384.51	3335.49
384.72	3349.99
384.94	3347.77
385.16	3344.09
385.37	3352.69
385.59	3335.40
385.81	3359.24
386.02	3342.53
386.24	3350.80
386.46	3339.25
386.67	3353.67
386.89	3384.88
387.11	3380.95
387.32	3376.77
387.54	3351.79
387.76	3371.04
387.97	3390.70
388.19	3391.03
388.40	3366.21
388.62	3358.10
388.84	3378.08
389.05	3389.39
389.27	3368.09
389.49	3390.94
389.70	3369.48
389.92	3387.91
390.14	3356.46
390.35	3384.47
390.57	3397.74
390.78	3387.67
391.00	3390.13
391.22	3396.02
391.43	3372.76
391.65	3406.67
391.86	3406.59
392.08	3416.18
392.30	3381.11
392.51	3395.61
392.73	3452.71
392.95	3424.61
393.16	3388.24
393.38	3415.68
393.59	3405.53
393.81	3438.38
394.03	3410.77
394.24	3425.76
394.46	3432.48
394.67	3429.28
394.89	3412.98
395.11	3432.48
395.32	3443.54
395.54	3434.12
395.75	3447.39
395.97	3441.49
396.19	3421.42
396.40	3449.76
396.62	3447.06
396.83	3448.78
397.05	3461.39
397.26	3460.90
397.48	3446.65
397.70	3470.32
397.91	3487.28
398.13	3459.59
398.34	3477.37
398.56	3503.50
398.78	3481.87
398.99	3526.19
399.21	3478.43
399.42	3509.56
399.64	3476.30
399.85	3492.03
400.07	3496.62
400.29	3514.31
400.50	3480.40
400.72	3519.80
400.93	3495.55
401.15	3503.09
401.36	3516.61
401.58	3536.76
401.79	3541.35
402.01	3536.02
402.23	3538.73
402.44	3563.88
402.66	3547.08
402.87	3539.22
403.09	3549.38
403.30	3561.17
403.52	3540.04
403.73	3552.00
403.95	3557.90
404.16	3558.06
404.38	3561.75
404.60	3566.74
404.81	3578.05
405.03	3607.21
405.24	3603.28
405.46	3595.33
405.67	3600.57
405.89	3615.16
406.10	3600.08
406.32	3615.16
406.53	3627.61
406.75	3637.44
406.96	3622.77
407.18	3631.38
407.39	3613.35
407.61	3646.37
407.82	3641.04
408.04	3645.22
408.25	3644.40
408.47	3653.90
408.68	3666.52
408.90	3650.95
409.12	3676.76
409.33	3676.68
409.55	3660.13
409.76	3675.12
409.98	3666.85
410.19	3687.08
410.41	3709.36
410.62	3710.18
410.84	3671.93
411.05	3716.49
411.27	3734.02
411.48	3726.65
411.70	3743.44
411.91	3728.78
412.12	3735.99
412.34	3747.78
412.55	3746.80
412.77	3760.81
412.98	3752.86
413.20	3753.11
413.41	3745.33
413.63	3756.63
413.84	3774.90
414.06	3791.86
414.27	3782.35
414.49	3796.61
414.70	3785.63
414.92	3828.31
415.13	3801.36
415.35	3834.86
415.56	3824.87
415.78	3816.68
415.99	3831.59
416.21	3832.98
416.42	3840.92
416.63	3846.74
416.85	3862.31
417.06	3853.54
417.28	3841.83
417.49	3887.78
417.71	3878.03
417.92	3873.69
418.14	3884.01
418.35	3903.43
418.57	3917.52
418.78	3907.20
418.99	3891.80
419.21	3936.11
419.42	3909.49
419.64	3911.87
419.85	3946.85
420.07	3953.81
420.28	3947.34
420.50	3951.84
420.71	3953.40
420.92	3970.36
421.14	3967.00
421.35	3964.79
421.57	3984.04
421.78	3996.49
422.00	3979.61
422.21	4005.09
422.42	3990.51
422.64	4012.79
422.85	4023.36
423.07	4045.48
423.28	4050.47
423.50	4046.70
423.71	4052.03
423.92	4101.43
424.14	4058.25
424.35	4080.45
424.57	4100.28
424.78	4101.26
424.99	4097.49
425.21	4119.28
425.42	4120.92
425.64	4120.27
425.85	4121.09
426.06	4140.09
426.28	4153.53
426.49	4182.44
426.71	4164.67
426.92	4175.64
427.13	4183.02
427.35	4222.99
427.56	4236.26
427.78	4192.85
427.99	4236.02
428.20	4234.46
428.42	4260.76
428.63	4260.76
428.84	4217.42
429.06	4268.38
429.27	4283.70
429.49	4289.51
429.70	4308.93
429.91	4324.65
430.13	4330.06
430.34	4323.18
430.56	4337.27
430.77	4365.12
430.98	4340.87
431.20	4369.46
431.41	4397.56
431.62	4397.89
431.84	4347.35
432.05	4396.42
432.26	4418.37
432.48	4400.02
432.69	4447.45
432.91	4444.58
433.12	4433.52
433.33	4444.91
433.55	4521.42
433.76	4473.83
433.97	4460.48
434.19	4503.40
434.40	4536.74
434.61	4530.76
434.83	4555.75
435.04	4531.09
435.25	4564.35
435.47	4541.58
435.68	4552.55
435.89	4592.77
436.11	4592.69
436.32	4606.62
436.53	4609.57
436.75	4610.71
436.96	4625.46
437.17	4621.77
437.39	4615.38
437.60	4649.54
437.81	4668.47
438.03	4660.44
438.24	4681.49
438.45	4724.09
438.67	4689.36
438.88	4756.04
439.09	4778.32
439.31	4757.02
439.52	4751.21
439.73	4781.52
439.94	4737.03
440.16	4786.92
440.37	4745.39
440.58	4826.41
440.80	4827.31
441.01	4798.47
441.22	4901.77
441.44	4873.02
441.65	4853.19
441.86	4889.81
442.08	4913.08
442.29	4874.33
442.50	4922.01
442.71	4914.31
442.93	4953.95
443.14	4940.27
443.35	4976.32
443.57	4943.47
443.78	4986.56
443.99	4986.72
444.20	4953.38
444.42	5027.44
444.63	5007.20
444.84	5027.85
445.06	5052.34
445.27	5052.18
445.48	5018.26
445.69	5058.16
445.91	5052.26
446.12	5056.68
446.33	5089.94
446.54	5128.61
446.76	5080.85
446.97	5116.97
447.18	5115.74
447.39	5175.54
447.61	5168.42
447.82	5192.75
448.03	5158.34
448.25	5211.67
448.46	5239.44
448.67	5252.06
448.88	5234.69
449.10	5259.43
449.31	5288.51
449.52	5286.95
449.73	5314.07
449.95	5366.58
450.16	5308.74
450.37	5359.04
450.58	5420.15
450.79	5322.51
451.01	5380.75
451.22	5364.53
451.43	5400.17
451.64	5414.17
451.86	5425.40
452.07	5457.59
452.28	5475.61
452.49	5539.02
452.71	5482.66
452.92	5471.19
453.13	5519.85
453.34	5521.65
453.55	5573.67
453.77	5619.46
453.98	5578.26
454.19	5568.51
454.40	5582.84
454.62	5670.33
454.83	5608.49
455.04	5700.48
455.25	5654.85
455.46	5793.29
455.68	5718.50
455.89	5715.55
456.10	5750.70
456.31	5762.82
456.52	5809.43
456.74	5778.96
456.95	5860.80
457.16	5825.49
457.37	5887.99
457.58	5888.98
457.80	5860.14
458.01	5895.69
458.22	6019.96
458.43	5947.47
458.64	5983.26
458.86	5955.41
459.07	5981.63
459.28	5991.37
459.49	6042.00
459.70	6151.93
459.91	6085.17
460.13	6097.87
460.34	6137.35
460.55	6085.01
460.76	6184.05
460.97	6205.75
461.19	6174.87
461.40	6330.76
461.61	6215.83
461.82	6292.18
462.03	6298.98
462.24	6278.91
462.46	6285.05
462.67	6322.00
462.88	6392.04
463.09	6376.23
463.30	6442.17
463.51	6408.67
463.72	6525.57
463.94	6521.47
464.15	6534.09
464.36	6469.21
464.57	6619.28
464.78	6592.33
464.99	6627.72
465.20	6598.23
465.42	6706.85
465.63	6706.61
465.84	6649.75
466.05	6743.31
466.26	6792.78
466.47	6836.94
466.68	6754.04
466.90	6917.38
467.11	6870.44
467.32	6951.71
467.53	6990.21
467.74	6895.18
467.95	6965.80
468.16	7028.87
468.37	7074.91
468.59	7116.61
468.80	7177.31
469.01	7120.87
469.22	7188.53
469.43	7312.80
469.64	7240.88
469.85	7344.43
470.06	7357.29
470.28	7425.85
470.49	7319.03
470.70	7414.71
470.91	7548.81
471.12	7452.23
471.33	7603.62
471.54	7557.09
471.75	7562.66
471.96	7767.78
472.17	7722.23
472.39	7840.28
472.60	7720.51
472.81	7853.06
473.02	7866.33
473.23	7967.99
473.44	8035.08
473.65	8007.48
473.86	8027.22
474.07	8064.08
474.28	8138.05
474.49	8292.72
474.71	8201.62
474.92	8313.93
475.13	8257.90
475.34	8334.17
475.55	8349.73
475.76	8424.85
475.97	8585.41
476.18	8510.62
476.39	8631.29
476.60	8699.44
476.81	8713.21
477.02	8819.62
477.23	8847.47
477.44	8843.37
477.65	8937.50
477.87	9047.02
478.08	9013.52
478.29	9097.00
478.50	9247.56
478.71	9202.10
478.92	9237.81
479.13	9298.19
479.34	9335.87
479.55	9411.24
479.76	9415.00
479.97	9466.37
480.18	9676.16
480.39	9533.05
480.60	9740.06
480.81	9764.72
481.02	9761.11
481.23	9838.28
481.44	9938.14
481.65	9993.35
481.86	10120.98
482.07	9949.11
482.28	10332.99
482.49	10181.85
482.71	10257.78
482.92	10344.29
483.13	10433.17
483.34	10394.83
483.55	10475.69
483.76	10494.61
483.97	10667.38
484.18	10627.89
484.39	10706.62
484.60	10677.70
484.81	10846.21
485.02	10837.44
485.23	10983.09
485.44	11020.12
485.65	11137.84
485.86	11047.15
486.07	11239.66
486.28	11188.71
486.49	11269.64
486.70	11360.66
486.91	11454.04
487.12	11407.27
487.33	11463.87
487.54	11695.05
487.75	11703.73
487.96	11725.11
488.17	11739.12
488.38	11797.61
488.59	11837.51
488.80	11920.00
489.01	11905.58
489.22	12119.22
489.43	12089.81
489.64	12055.41
489.85	12306.16
490.06	12121.76
490.26	12273.15
490.47	12264.22
490.68	12448.37
490.89	12530.37
491.10	12399.71
491.31	12554.46
491.52	12728.78
491.73	12645.14
491.94	12602.71
492.15	12781.62
492.36	12835.44
492.57	12842.16
492.78	12881.56
492.99	12895.49
493.20	12999.36
493.41	13004.11
493.62	13068.50
493.83	13099.38
494.04	13165.74
494.25	13296.81
494.46	13294.59
494.67	13245.44
494.88	13353.90
495.08	13378.48
495.29	13465.72
495.50	13603.59
495.71	13531.67
495.92	13660.20
496.13	13670.44
496.34	13601.13
496.55	13681.50
496.76	13845.99
496.97	13696.24
497.18	13903.33
497.39	13857.05
497.60	14025.88
497.81	13848.12
498.02	14054.64
498.22	13903.41
498.43	14160.23
498.64	14139.09
498.85	14123.37
499.06	14129.76
499.27	14298.67
499.48	14092.24
499.69	14260.09
499.90	14291.63
500.11	14405.08
500.32	14515.67
500.52	14395.58
500.73	14594.97
500.94	14590.71
501.15	14622.17
501.36	14624.38
501.57	14571.63
501.78	14655.92
501.99	14789.37
502.20	14724.08
502.41	14801.08
502.61	14806.16
502.82	14923.06
503.03	14824.67
503.24	15072.80
503.45	14855.72
503.66	15084.19
503.87	15059.45
504.08	15239.84
504.28	15070.51
504.49	15194.29
504.70	15222.39
504.91	15292.10
505.12	15218.46
505.33	15412.85
505.54	15429.72
505.75	15440.05
505.95	15543.02
506.16	15486.33
506.37	15449.88
506.58	15665.98
506.79	15476.34
507.00	15739.21
507.21	15587.75
507.41	15633.78
507.62	15760.35
507.83	15842.19
508.04	15715.13
508.25	15929.76
508.46	15775.67
508.67	15900.35
508.87	15777.80
509.08	15973.83
509.29	15971.29
509.50	15975.88
509.71	16014.71
509.92	16080.73
510.12	15957.77
510.33	16056.48
510.54	16033.88
510.75	16116.29
510.96	16235.80
511.17	16345.99
511.37	16316.09
511.58	16432.90
511.79	16291.10
512.00	16287.58
512.21	16492.87
512.42	16412.42
512.62	16514.57
512.83	16527.11
513.04	16508.43
513.25	16659.08
513.46	16357.29
513.66	16790.80
513.87	16632.13
514.08	16784.01
514.29	16704.95
514.50	16791.54
514.71	16857.32
514.91	16760.41
515.12	16775.81
515.33	16866.82
515.54	16814.89
515.75	16977.66
515.95	16872.23
516.16	16884.27
516.37	17087.43
516.58	17134.62
516.78	17043.85
516.99	17188.77
517.20	17201.71
517.41	17143.96
517.62	17205.23
517.82	17170.17
518.03	17352.28
518.24	17454.67
518.45	17217.60
518.66	17388.81
518.86	17354.81
519.07	17525.70
519.28	17281.50
519.49	17548.23
519.69	17525.37
519.90	17602.54
520.11	17652.92
520.32	17592.71
520.52	17761.79
520.73	17455.98
520.94	17730.49
521.15	17704.69
521.36	17579.27
521.56	17942.09
521.77	17650.13
521.98	17890.56
522.19	17758.26
522.39	17898.67
522.60	17818.56
522.81	17874.43
523.02	17758.59
523.22	17882.86
523.43	17955.69
523.64	17849.03
523.84	17902.36
524.05	18090.04
524.26	18080.12
524.47	17984.03
524.67	18062.43
524.88	18097.00
525.09	18222.66
525.30	18078.81
525.50	18138.12
525.71	18172.45
525.92	18213.73
526.13	18339.89
526.33	18288.36
526.54	18168.10
526.75	18284.59
526.95	18439.75
527.16	18121.49
527.37	18373.72
527.58	18452.69
527.78	18385.43
527.99	18530.51
528.20	18629.63
528.40	18474.64
528.61	18396.17
528.82	18654.62
529.03	18533.71
529.23	18545.34
529.44	18664.53
529.65	18681.49
529.85	18615.71
530.06	18657.81
530.27	18713.93
530.47	18567.79
530.68	18883.99
530.89	18578.11
531.09	18885.14
531.30	18746.37
531.51	18622.43
531.72	18822.88
531.92	18798.06
532.13	18924.21
532.34	18822.64
532.54	18867.36
532.75	18947.32
532.96	18838.94
533.16	19058.07
533.37	19072.41
533.58	18911.03
533.78	19036.85
533.99	19098.13
534.20	18869.00
534.40	19014.08
534.61	19093.13
534.82	19086.58
535.02	19122.05
535.23	19148.59
535.44	19217.16
535.64	19178.65
535.85	19172.59
536.06	19176.44
536.26	19179.31
536.47	19175.13
536.68	19418.68
536.88	19153.67
537.09	19444.40
537.29	19144.58
537.50	19489.37
537.71	19370.18
537.91	19451.03
538.12	19525.33
538.33	19432.19
538.53	19481.75
538.74	19456.77
538.95	19488.63
539.15	19410.24
539.36	19614.95
539.56	19778.14
539.77	19507.23
539.98	19434.40
540.18	19562.28
540.39	19534.10
540.60	19556.05
540.80	19706.54
541.01	19594.23
541.21	19542.29
541.42	19683.68
541.63	19597.67
541.83	19675.41
542.04	19659.19
542.25	19655.75
542.45	19772.32
542.66	19762.65
542.86	19799.19
543.07	19507.07
543.28	19916.00
543.48	19813.28
543.69	19972.69
543.89	19861.77
544.10	20044.70
544.31	19970.64
544.51	19918.05
544.72	19966.14
544.92	19927.23
545.13	20038.56
545.33	19992.19
545.54	19834.00
545.75	19981.62
545.95	19823.93
546.16	19820.90
546.36	20064.93
546.57	19743.48
546.78	19519.52
546.98	19734.14
547.19	19546.88
547.39	19844.24
547.60	19915.43
547.80	20157.09
548.01	20131.53
548.22	20032.57
548.42	20087.30
548.63	20236.80
548.83	20104.42
549.04	20227.46
549.24	20006.12
549.45	20092.38
549.65	20168.15
549.86	19993.91
550.07	19997.51
550.27	20191.74
550.48	20231.97
550.68	20156.11
550.89	20129.65
551.09	20241.14
551.30	20204.52
551.50	20288.16
551.71	20149.23
551.91	20098.93
552.12	20140.46
552.33	20309.38
552.53	19980.56
552.74	20337.64
552.94	20291.60
553.15	20198.62
553.35	20259.57
553.56	20125.72
553.76	20276.04
553.97	20134.73
554.17	20217.71
554.38	20475.18
554.58	20191.50
554.79	20473.13
554.99	20181.01
555.20	20210.34
555.40	20309.79
555.61	20194.77
555.81	20065.92
556.02	20413.74
556.22	20346.32
556.43	20303.15
556.63	20356.56
556.84	20330.02
557.04	20452.24
557.25	20220.74
557.45	20340.67
557.66	20384.33
557.86	20271.37
558.07	20480.10
558.27	20279.23
558.48	20260.80
558.68	20224.02
558.89	20336.74
559.09	20340.84
559.30	20317.32
559.50	20409.16
559.71	20337.48
559.91	20576.52
560.12	20390.40
560.32	20445.86
560.53	20614.12
560.73	20503.44
560.94	20637.46
561.14	20426.11
561.35	20550.55
561.55	20454.62
561.76	20488.86
561.96	20209.68
562.17	20387.37
562.37	20467.56
562.57	20346.98
562.78	20373.28
562.98	20532.69
563.19	20446.76
563.39	20608.63
563.60	20528.76
563.80	20348.86
564.01	20656.63
564.21	20595.60
564.42	20420.38
564.62	20431.93
564.82	20608.38
565.03	20453.39
565.23	20521.30
565.44	20669.49
565.64	20542.36
565.85	20634.92
566.05	20604.04
566.25	20691.69
566.46	20557.59
566.66	20692.76
566.87	20550.79
567.07	20441.02
567.28	20533.59
567.48	20571.52
567.68	20390.40
567.89	20725.69
568.09	20440.69
568.30	20476.49
568.50	20534.08
568.71	20418.41
568.91	20518.76
569.11	20414.40
569.32	20499.18
569.52	20598.55
569.73	20354.27
569.93	20585.04
570.13	20440.20
570.34	20401.13
570.54	20589.54
570.75	20488.29
570.95	20475.26
571.15	20465.19
571.36	20560.13
571.56	20536.29
571.77	20521.22
571.97	20347.72
572.17	20622.06
572.38	20529.25
572.58	20706.68
572.79	20559.39
572.99	20550.38
573.19	20519.83
573.40	20456.42
573.60	20496.97
573.81	20445.77
574.01	20567.50
574.21	20440.04
574.42	20453.47
574.62	20456.50
574.82	20553.25
575.03	20374.75
575.23	20602.65
575.43	20397.85
575.64	20362.05
575.84	20579.38
576.05	20230.90
576.25	20362.22
576.45	20354.27
576.66	20565.46
576.86	20300.12
577.06	20419.56
577.27	20362.30
577.47	20368.61
577.67	20397.20
577.88	20190.92
578.08	20339.11
578.28	20468.38
578.49	20394.00
578.69	20414.23
578.89	20331.58
579.10	20437.50
579.30	20686.45
579.50	20549.73
579.71	20537.69
579.91	20625.91
580.11	20482.72
580.32	20337.15
580.52	20290.78
580.72	20469.86
580.93	20181.67
581.13	20278.17
581.33	20491.48
581.54	20303.48
581.74	20280.95
581.94	20359.43
582.15	20568.08
582.35	20361.23
582.55	20343.37
582.76	20185.19
582.96	20512.21
583.16	20354.43
583.37	20556.69
583.57	20429.14
583.77	20782.38
583.97	20335.76
584.18	20708.32
584.38	20489.27
584.58	20328.30
584.79	20462.16
584.99	20332.32
585.19	20343.78
585.40	20353.86
585.60	20520.81
585.80	20324.37
586.00	20536.29
586.21	20497.05
586.41	20392.53
586.61	20462.16
586.82	20354.35
587.02	20320.11
587.22	20452.16
587.42	20266.13
587.63	20434.55
587.83	20144.89
588.03	20310.61
588.23	20108.43
588.44	20235.16
588.64	20183.14
588.84	20278.33
589.05	20364.76
589.25	20433.89
589.45	20482.15
589.65	20556.77
589.86	20497.71
590.06	20419.15
590.26	20307.08
590.46	20474.04
590.67	20222.95
590.87	20519.50
591.07	20419.15
591.27	20177.57
591.48	20364.67
591.68	20174.29
591.88	20544.65
592.08	20274.81
592.29	20379.50
592.49	20268.75
592.69	20323.30
592.89	20161.02
593.10	20270.30
593.30	20164.63
593.50	20579.63
593.70	20094.92
593.90	20514.91
594.11	20357.63
594.31	20338.54
594.51	20300.70
594.71	20291.77
594.92	20234.18
595.12	20149.47
595.32	20273.99
595.52	20337.31
595.72	19983.59
595.93	20353.70
596.13	20139.97
596.33	20060.35
596.53	20263.34
596.73	20191.25
596.94	20145.62
597.14	20296.52
597.34	20124.73
597.54	20259.41
597.74	20252.20
597.95	20308.15
598.15	20280.54
598.35	20269.81
598.55	20224.26
598.75	20137.59
598.96	20293.65
599.16	20167.58
599.36	20135.30
599.56	20027.66
599.76	19959.91
599.97	20185.03
600.17	19973.68
600.37	20090.98
600.57	19861.94
600.77	20291.85
600.97	20039.87
601.18	20295.21
601.38	20067.88
601.58	20191.42
601.78	19969.99
601.98	19921.90
602.18	19992.03
602.39	20179.78
602.59	20122.36
602.79	20039.05
602.99	20230.65
603.19	20288.41
603.39	20136.20
603.60	20133.34
603.80	20135.96
604.00	19975.15
604.20	19916.50
604.40	20093.28
604.60	19936.48
604.80	19979.98
605.01	19955.41
605.21	19975.23
605.41	19917.07
605.61	19952.38
605.81	20107.28
606.01	20200.34
606.21	19915.59
606.42	20130.88
606.62	19985.06
606.82	20238.60
607.02	19960.90
607.22	20088.44
607.42	20099.50
607.62	19918.95
607.82	19928.37
608.03	20040.77
608.23	19962.86
608.43	19948.03
608.63	19967.12
608.83	19828.02
609.03	19821.39
609.23	19852.11
609.43	19846.21
609.63	19745.94
609.84	19630.03
610.04	19847.85
610.24	19801.56
610.44	19875.95
610.64	19754.95
610.84	19868.41
611.04	19976.05
611.24	19812.13
611.44	19513.62
611.64	19809.43
611.85	19917.40
612.05	19873.16
612.25	19908.06
612.45	19782.15
612.65	19886.92
612.85	19760.28
613.05	19588.00
613.25	19800.42
613.45	19665.09
613.65	19747.50
613.85	19502.56
614.05	19661.73
614.25	19658.29
614.46	19694.91
614.66	19556.71
614.86	19558.43
615.06	19600.37
615.26	19723.91
615.46	19468.65
615.66	19784.20
615.86	19958.11
616.06	19690.15
616.26	19743.16
616.46	19934.35
616.66	19596.77
616.86	19833.76
617.06	19595.62
617.26	19652.47
617.46	19524.51
617.66	19407.37
617.86	19275.15
618.07	19419.90
618.27	19366.58
618.47	19501.33
618.67	19524.43
618.87	19556.79
619.07	19460.45
619.27	19406.47
619.47	19357.40
619.67	19516.24
619.87	19367.72
620.07	19657.39
620.27	19652.23
620.47	19477.17
620.67	19630.27
620.87	19514.68
621.07	19499.78
621.27	19399.83
621.47	19286.38
621.67	19430.64
621.87	19338.31
622.07	19494.53
622.27	19509.61
622.47	19402.70
622.67	19215.35
622.87	19158.26
623.07	19446.53
623.27	19518.13
623.47	19271.96
623.67	19347.24
623.87	19394.92
624.07	19249.84
624.27	19082.24
624.47	19185.21
624.67	19242.39
624.87	19334.79
625.07	19262.46
625.27	19580.14
625.47	19365.26
625.67	19375.83
625.87	19390.09
626.07	19388.04
626.27	19439.40
626.47	19442.51
626.67	19315.29
626.87	19218.47
627.07	19271.39
627.27	19136.30
627.47	19009.16
627.67	18929.13
627.87	18829.68
628.07	18945.84
628.27	18806.25
628.47	18698.94
628.67	18857.78
628.86	18923.40
629.06	18898.08
629.26	18893.66
629.46	19068.47
629.66	18902.83
629.86	18728.76
630.06	18970.74
630.26	18886.37
630.46	19073.14
630.66	18893.25
630.86	19131.14
631.06	18978.12
631.26	19022.43
631.46	19170.54
631.66	19089.94
631.86	18861.55
632.06	18888.50
632.26	18780.94
632.45	18695.42
632.65	18756.12
632.85	18730.89
633.05	18641.51
633.25	18688.45
633.45	18546.65
633.65	18710.73
633.85	19060.12
634.05	18650.11
634.25	18785.69
634.45	18756.69
634.65	18868.43
634.84	18783.81
635.04	18931.26
635.24	18862.61
635.44	19006.62
635.64	18976.23
635.84	19059.79
636.04	18945.27
636.24	18934.04
636.44	18996.22
636.64	18603.58
636.84	18957.15
637.03	18558.69
637.23	18603.83
637.43	18599.16
637.63	18478.74
637.83	18496.68
638.03	18588.92
638.23	18256.49
638.43	18530.27
638.62	18551.57
638.82	18386.50
639.02	18717.70
639.22	18675.26
639.42	18727.04
639.62	18669.37
639.82	18689.76
640.02	18729.98
640.21	18751.94
640.41	18569.75
640.61	18624.31
640.81	18639.63
641.01	18571.72
641.21	18493.16
641.41	18611.20
641.61	18413.94
641.80	18451.38
642.00	18616.20
642.20	18663.88
642.40	18354.96
642.60	18417.55
642.80	18442.20
642.99	18246.09
643.19	18382.65
643.39	18260.67
643.59	18419.76
643.79	18366.76
643.99	18550.66
644.19	18428.52
644.38	18481.53
644.58	18556.56
644.78	18556.32
644.98	18511.02
645.18	18468.01
645.38	18496.11
645.57	18333.50
645.77	18274.68
645.97	18220.53
646.17	18266.08
646.37	18300.08
646.56	18164.09
646.76	18157.37
646.96	18120.35
647.16	18126.65
647.36	18105.27
647.55	18158.77
647.75	18241.50
647.95	18205.46
648.15	18373.39
648.35	18283.28
648.55	18359.88
648.74	18333.99
648.94	18371.43
649.14	18519.86
649.34	18285.90
649.54	18365.45
649.73	18342.35
649.93	18148.69
650.13	18182.03
650.33	18267.88
650.52	18330.22
650.72	18525.60
650.92	18312.85
651.12	18247.48
651.32	18353.24
651.51	18545.01
651.71	18501.68
651.91	18433.93
652.11	18276.89
652.30	18204.07
652.50	18260.34
652.70	18233.15
652.90	18055.96
653.10	18131.49
653.29	17976.41
653.49	18271.90
653.69	18034.82
653.89	18131.16
654.08	17975.35
654.28	18221.27
654.48	18000.42
654.68	18158.68
654.87	17798.81
655.07	17901.70
655.27	17911.45
655.47	17852.55
655.66	17802.91
655.86	17742.13
656.06	18061.20
656.26	17825.93
656.45	17983.21
656.65	18078.73
656.85	17993.21
657.04	17794.23
657.24	17870.08
657.44	17887.20
657.64	17994.93
657.83	17682.33
658.03	17934.80
658.23	17900.80
658.43	17731.15
658.62	17760.97
658.82	17607.62
659.02	17633.99
659.21	17537.08
659.41	17510.38
659.61	17603.19
659.81	17549.29
660.00	17436.90
660.20	17493.67
660.40	17501.04
660.59	17684.87
660.79	17674.05
660.99	17907.77
661.19	17913.83
661.38	18016.64
661.58	17860.17
661.78	18035.72
661.97	17860.09
662.17	17976.09
662.37	17538.89
662.56	17508.58
662.76	17433.46
662.96	17455.25
663.15	17390.12
663.35	17475.56
663.55	17439.93
663.74	17301.65
663.94	17430.51
664.14	17248.73
664.33	17320.82
664.53	17290.02
664.73	17366.69
664.93	17270.03
665.12	17319.75
665.32	17186.31
665.52	17243.49
665.71	17257.50
665.91	17459.92
666.10	17384.63
666.30	17418.96
666.50	17395.20
666.69	17440.91
666.89	17606.55
667.09	17682.98
667.28	17363.09
667.48	17190.65
667.68	17187.70
667.87	17052.13
668.07	17045.65
668.27	17183.11
668.46	17199.82
668.66	17055.98
668.86	17245.45
669.05	17018.13
669.25	17239.47
669.44	17095.05
669.64	17163.45
669.84	17057.61
670.03	17346.13
670.23	17163.94
670.43	17164.85
670.62	17171.40
670.82	17216.04
671.01	17336.06
671.21	17208.67
671.41	17201.54
671.60	17244.22
671.80	17249.22
672.00	17123.80
672.19	17181.64
672.39	17153.46
672.58	17089.73
672.78	17006.91
672.98	17069.41
673.17	17037.38
673.37	16825.62
673.56	16945.22
673.76	17145.27
673.96	17230.79
674.15	17122.49
674.35	17234.64
674.54	17189.34
674.74	17091.94
674.94	17089.15
675.13	17141.99
675.33	16851.83
675.52	17018.54
675.72	16993.31
675.91	17013.62
676.11	17098.82
676.31	17071.29
676.50	17083.99
676.70	17069.82
676.89	17102.83
677.09	17202.20
677.28	16987.00
677.48	16764.92
677.68	16736.41
677.87	16672.76
678.07	16585.68
678.26	16772.86
678.46	16788.76
678.65	16854.54
678.85	16881.65
679.04	16712.98
679.24	16628.36
679.44	16609.03
679.63	16682.18
679.83	16692.09
680.02	16853.23
680.22	16751.81
680.41	16752.71
680.61	16862.81
680.80	16726.74
681.00	16902.13
681.19	16963.98
681.39	16897.13
681.59	16784.09
681.78	16721.50
681.98	16752.71
682.17	16516.62
682.37	16619.02
682.56	16614.84
682.76	16694.71
682.95	16726.50
683.15	16829.22
683.34	16783.76
683.54	16744.93
683.73	16718.14
683.93	16360.49
684.12	16457.48
684.32	16457.89
684.51	16096.38
684.71	16349.67
684.90	16375.31
685.10	16453.22
685.29	16400.63
685.49	16585.19
685.68	16561.19
685.88	16573.72
686.07	16431.43
686.27	16592.56
686.46	16416.27
686.66	16370.23
686.85	16397.43
687.05	16342.30
687.24	16253.83
687.44	16337.63
687.63	16351.56
687.83	16153.80
688.02	16358.85
688.22	16482.79
688.41	16339.10
688.61	16325.18
688.80	16360.65
689.00	16250.39
689.19	16105.72
689.39	16258.58
689.58	16315.92
689.77	16237.93
689.97	16382.44
690.16	16213.44
690.36	16178.05
690.55	16164.62
690.75	16339.35
690.94	16107.44
691.14	16122.92
691.33	15943.11
691.53	16011.59
691.72	15947.78
691.91	15989.31
692.11	16037.81
692.30	16132.83
692.50	16099.16
692.69	16035.27
692.89	16178.71
693.08	16222.45
693.28	16258.66
693.47	16236.54
693.66	16276.27
693.86	16171.42
694.05	16078.36
694.25	16032.48
694.44	15943.93
694.64	15920.99
694.83	15882.16
695.02	15936.23
695.22	16027.89
695.41	15967.68
695.61	15946.06
695.80	15860.13
695.99	15866.02
696.19	15914.19
696.38	15857.18
696.58	15792.05
696.77	16051.41
696.96	15989.97
697.16	15998.57
697.35	15925.91
697.55	15896.09
697.74	15706.61
697.93	15848.25
698.13	15731.10
698.32	15865.29
698.52	15827.19
698.71	15658.36
698.90	15877.08
699.10	15667.86
699.29	15637.63
699.49	15686.05
699.68	15731.02
699.87	15724.63
700.07	15984.31
700.26	15949.17
700.45	15841.20
700.65	15817.04
700.84	15989.15
701.04	15827.77
701.23	15895.43
701.42	15755.52
701.62	15642.39
701.81	15646.81
702.00	15572.26
702.20	15550.31
702.39	15575.38
702.58	15636.90
702.78	15622.81
702.97	15501.49
703.17	15546.87
703.36	15591.35
703.55	15435.54
703.75	15386.31
703.94	15493.54
704.13	15370.25
704.33	15401.46
704.52	15458.15
704.71	15419.98
704.91	15357.64
705.10	15309.96
705.29	15277.85
705.49	15294.15
705.68	15300.13
705.87	15335.27
706.07	15196.50
706.26	15380.00
706.45	15259.50
706.65	15220.01
706.84	15337.24
707.03	15486.00
707.23	15226.40
707.42	15192.90
707.61	15373.69
707.80	15180.28
708.00	15283.75
708.19	15286.86
708.38	15479.61
708.58	15224.85
708.77	15437.10
708.96	15114.58
709.16	15078.21
709.35	15241.23
709.54	14990.72
709.74	14960.41
709.93	14956.73
710.12	15151.28
710.31	15158.74
710.51	15088.53
710.70	15079.36
710.89	15188.47
711.09	14958.04
711.28	15024.64
711.47	15142.68
711.66	15138.42
711.86	15039.55
712.05	15199.29
712.24	15227.79
712.43	15176.43
712.63	15047.33
712.82	15149.97
713.01	15008.83
713.21	14860.55
713.40	14843.35
713.59	14965.82
713.78	14828.77
713.98	14892.01
714.17	14928.79
714.36	14827.46
714.55	14673.86
714.75	14787.56
714.94	14727.52
715.13	14826.88
715.32	14658.46
715.52	14706.55
715.71	14652.23
715.90	14577.11
716.09	14561.06
716.29	14674.68
716.48	14502.65
716.67	14360.44
716.86	14427.45
717.06	14450.80
717.25	14535.50
717.44	14597.43
717.63	14622.91
717.82	14457.59
718.02	14535.34
718.21	14686.72
718.40	14642.49
718.59	14542.54
718.79	14444.98
718.98	14489.46
719.17	14485.20
719.36	14523.54
719.55	14392.63
719.75	14457.68
719.94	14469.80
720.13	14634.54
720.32	14598.74
720.51	14499.78
720.71	14408.61
720.90	14306.70
721.09	14300.72
721.28	14143.19
721.47	14291.79
721.67	14194.64
721.86	14213.80
722.05	14191.19
722.24	14115.09
722.43	14262.96
722.63	14091.91
722.82	14247.31
723.01	14243.46
723.20	14248.95
723.39	14170.63
723.58	14295.89
723.78	14102.15
723.97	14314.32
724.16	14243.21
724.35	14334.88
724.54	14300.39
724.73	14327.75
724.93	14174.89
725.12	14215.93
725.31	13956.66
725.50	14078.72
725.69	14158.18
725.88	14070.12
726.08	13951.75
726.27	14174.89
726.46	13887.28
726.65	14196.03
726.84	13920.78
727.03	13971.41
727.23	14058.08
727.42	14068.32
727.61	13974.52
727.80	13935.69
727.99	14005.16
728.18	13927.83
728.37	13813.39
728.56	13795.53
728.76	13787.91
728.95	13886.54
729.14	13853.85
729.33	13820.92
729.52	13881.30
729.71	13890.63
729.90	13891.86
730.09	13827.31
730.29	14018.59
730.48	13843.45
730.67	13902.59
730.86	13802.16
731.05	13882.12
731.24	13821.41
731.43	13767.92
731.62	13638.57
731.81	13606.54
732.01	13752.36
732.20	13548.95
732.39	13586.88
732.58	13620.22
732.77	13455.24
732.96	13663.88
733.15	13796.51
733.34	13663.56
733.53	13748.67
733.72	13760.22
733.92	13746.21
734.11	13747.44
734.30	13686.25
734.49	13813.30
734.68	13724.59
734.87	13649.22
735.06	13642.91
735.25	13634.88
735.44	13482.76
735.63	13441.72
735.82	13498.98
736.01	13362.18
736.20	13390.60
736.40	13501.19
736.59	13464.33
736.78	13490.79
736.97	13362.09
737.16	13452.37
737.35	13452.70
737.54	13537.48
737.73	13471.13
737.92	13547.80
738.11	13548.30
738.30	13473.09
738.49	13415.75
738.68	13394.62
738.87	13452.62
739.06	13334.57
739.25	13329.98
739.44	13291.40
739.63	13295.58
739.82	13175.16
740.01	13253.72
740.20	13136.65
740.39	13215.95
740.59	13160.17
740.78	13325.97
740.97	13234.88
741.16	13250.69
741.35	13315.73
741.54	13294.35
741.73	13251.75
741.92	13090.37
742.11	13147.88
742.30	13066.37
742.49	13012.63
742.68	13107.33
742.87	13110.60
743.06	13067.19
743.25	13167.05
743.44	13191.62
743.63	13158.12
743.82	13106.84
744.01	13107.49
744.20	13026.72
744.39	13118.47
744.58	13031.96
744.77	12940.21
744.96	12834.13
745.15	13015.82
745.34	12916.21
745.53	12984.04
745.72	12890.73
745.91	12940.62
746.10	12922.44
746.29	12959.38
746.48	12968.97
746.67	12902.29
746.86	12925.39
747.04	12812.75
747.23	12806.03
747.42	12918.34
747.61	12816.43
747.80	12981.01
747.99	12832.98
748.18	12949.63
748.37	12851.91
748.56	12634.98
748.75	12721.98
748.94	12612.37
749.13	12604.76
749.32	12475.98
749.51	12561.67
749.70	12559.62
749.89	12543.32
750.08	12630.40
750.27	12528.49
750.46	12622.53
750.65	12685.61
750.84	12616.96
751.02	12711.09
751.21	12709.94
751.40	12762.37
751.59	12756.55
751.78	12680.45
751.97	12637.11
752.16	12576.66
752.35	12759.34
752.54	12633.35
752.73	12774.98
752.92	12695.69
753.11	12689.54
753.30	12749.10
753.49	12750.74
753.67	12653.09
753.86	12667.51
754.05	12769.49
754.24	12668.00
754.43	12619.91
754.62	12629.99
754.81	12465.25
755.00	12455.91
755.19	12398.65
755.38	12285.93
755.56	12362.93
755.75	12497.61
755.94	12394.63
756.13	12476.80
756.32	12462.14
756.51	12444.52
756.70	12503.75
756.89	12470.74
757.08	12450.75
757.26	12428.22
757.45	12440.51
757.64	12317.79
757.83	12427.81
758.02	12305.02
758.21	12261.35
758.40	12341.22
758.59	12372.43
758.77	12308.05
758.96	12339.83
759.15	12346.30
759.34	12360.39
759.53	12360.31
759.72	12368.34
759.91	12278.47
760.09	12383.90
760.28	12381.20
760.47	12275.77
760.66	12335.24
760.85	12230.88
761.04	12331.64
761.23	12338.11
761.41	12287.98
761.60	12303.62
761.79	12244.97
761.98	12206.63
762.17	12289.94
762.36	12159.94
762.54	12279.05
762.73	12226.13
762.92	12170.18
763.11	12235.47
763.30	12255.95
763.49	12178.61
763.67	12185.41
763.86	12196.80
764.05	12297.48
764.24	12233.42
764.43	12290.84
764.61	12136.18
764.80	12063.03
764.99	12170.26
765.18	11965.38
765.37	12069.66
765.55	12035.09
765.74	12071.87
765.93	12096.04
766.12	12219.74
766.31	12159.12
766.49	12186.72
766.68	12188.85
766.87	12186.15
767.06	12195.98
767.25	12230.96
767.43	12181.48
767.62	12114.23
767.81	12169.44
768.00	11975.70
768.19	11890.26
768.37	11912.62
768.56	11853.97
768.75	11951.70
768.94	11956.70
769.12	11849.71
769.31	11867.98
769.50	11877.32
769.69	11926.39
769.88	11834.80
770.06	11996.18
770.25	12014.70
770.44	11996.59
770.63	12141.42
770.81	12092.11
771.00	12060.73
771.19	11995.28
771.38	12006.83
771.56	12073.27
771.75	12031.90
771.94	12070.15
772.13	12102.84
772.31	12056.64
772.50	12127.83
772.69	11978.98
772.88	11986.35
773.06	11795.48
773.25	11902.14
773.44	11858.23
773.62	11876.33
773.81	11914.75
774.00	11854.87
774.19	11846.84
774.37	11765.99
774.56	11846.68
774.75	11675.80
774.94	11818.01
775.12	11755.42
775.31	11861.18
775.50	11886.82
775.68	11826.04
775.87	11848.48
776.06	11791.47
776.25	11845.21
776.43	11775.66
776.62	11901.65
776.81	11743.38
776.99	11864.46
777.18	11759.68
777.37	11639.18
777.55	11747.97
777.74	11724.95
777.93	11706.68
778.12	11692.02
778.30	11678.99
778.49	11670.31
778.68	11750.26
778.86	11790.40
779.05	11796.87
779.24	11785.65
779.42	11754.77
779.61	11709.96
779.80	11657.53
779.98	11653.68
780.17	11719.30
780.36	11559.72
780.54	11660.56
780.73	11491.81
780.92	11605.51
781.10	11576.10
781.29	11606.33
781.48	11623.94
781.66	11698.49
781.85	11763.37
782.04	11740.43
782.22	11777.54
782.41	11669.41
782.60	11676.86
782.78	11674.81
782.97	11704.71
783.16	11642.87
783.34	11657.37
783.53	11711.51
783.71	11665.80
783.90	11668.83
784.09	11681.12
784.27	11708.48
784.46	11728.64
784.65	11796.63
784.83	11675.63
785.02	11741.50
785.20	11775.57
785.39	11573.48
785.58	11719.38
785.76	11688.99
785.95	11639.59
786.14	11649.34
786.32	11620.75
786.51	11558.00
786.69	11616.73
786.88	11614.60
787.07	11648.27
787.25	11722.33
787.44	11857.82
787.62	11874.37
787.81	12000.11
788.00	12019.12
788.18	12081.79
788.37	12000.03
788.55	12226.54
788.74	12097.92
788.93	12204.01
789.11	12212.86
789.30	12158.63
789.48	12021.82
789.67	12006.50
789.86	11934.17
790.04	11902.22
790.23	11795.89
790.41	11813.42
790.60	11965.87
790.78	11926.71
790.97	11816.53
791.16	11828.25
791.34	11944.82
791.53	11807.20
791.71	11951.45
791.90	11864.21
792.08	11905.50
792.27	11908.69
792.46	11899.11
792.64	11877.40
792.83	11843.24
793.01	11913.44
793.20	11869.78
793.38	11830.30
793.57	11960.47
793.75	11919.42
793.94	11982.91
794.12	12105.13
794.31	12006.09
794.50	12116.44
794.68	12100.14
794.87	12137.66
795.05	12190.00
795.24	12151.99
795.42	12093.91
795.61	12198.19
795.79	12189.51
795.98	11995.20
796.16	12119.88
796.35	12129.38
796.53	12037.14
796.72	12132.90
796.90	12158.95
797.09	12183.20
797.27	12163.38
797.46	12156.74
797.64	12192.62
797.83	12207.37
798.01	12213.51
798.20	12220.48
798.38	12102.18
798.57	12276.34
798.75	12159.12
798.94	12132.66
799.12	12443.13
799.31	12346.88
799.49	12370.22
799.68	12344.17
799.86	12411.84
800.05	12360.31
800.23	12436.25
800.42	12396.44
800.60	12580.10
800.79	12423.39
800.97	12481.88
801.16	12571.33
801.34	12376.94
801.53	12355.40
801.71	12419.62
801.90	12288.39
802.08	12414.38
802.27	12342.04
802.45	12244.40
802.64	12352.12
802.82	12286.91
803.00	12190.49
803.19	12228.18
803.37	12287.48
803.56	12120.86
803.74	12194.75
803.93	12184.19
804.11	12101.78
804.30	12078.59
804.48	12200.81
804.67	12254.64
804.85	12272.33
805.03	12370.30
805.22	12322.46
805.40	12228.59
805.59	12286.83
805.77	12184.92
805.96	12144.54
806.14	12043.53
806.32	12215.81
806.51	12275.44
806.69	12232.27
806.88	12321.97
807.06	12420.85
807.25	12477.29
807.43	12487.78
807.61	12516.20
807.80	12404.14
807.98	12503.18
808.17	12396.19
808.35	12380.05
808.53	12474.18
808.72	12413.31
808.90	12342.62
809.09	12308.37
809.27	12250.62
809.45	12127.25
809.64	12193.52
809.82	12101.78
810.01	12151.34
810.19	12134.46
810.37	12198.44
810.56	12227.85
810.74	12280.93
810.93	12187.38
811.11	12230.55
811.29	12141.59
811.48	12240.63
811.66	12160.18
811.84	12151.91
812.03	12105.46
812.21	12121.76
812.40	12130.04
812.58	12106.94
812.76	11996.76
812.95	12130.61
813.13	11994.38
813.31	12114.80
813.50	12184.84
813.68	12196.23
813.86	12328.36
814.05	12408.72
814.23	12280.69
814.42	12402.83
814.60	12303.70
814.78	12253.08
814.97	12210.24
815.15	12120.12
815.33	12093.26
815.52	12072.37
815.70	12016.42
815.88	12096.29
816.07	12008.47
816.25	12090.31
816.43	12129.63
816.62	12009.62
816.80	12024.36
816.98	11993.97
817.17	11937.20
817.35	11942.03
817.53	11967.35
817.72	11928.68
817.90	11833.57
818.08	11831.93
818.26	11974.31
818.45	11848.15
818.63	11877.24
818.81	11964.64
819.00	11873.22
819.18	12034.93
819.36	12022.31
819.55	12044.43
819.73	11875.60
819.91	11949.24
820.09	11933.60
820.28	12007.00
820.46	11904.68
820.64	12123.16
820.83	11979.55
821.01	12035.83
821.19	12034.03
821.38	12034.93
821.56	11938.27
821.74	11913.12
821.92	11780.90
822.11	11910.09
822.29	11729.04
822.47	11835.78
822.65	11857.82
822.84	11870.68
823.02	11730.93
823.20	11848.15
823.39	11634.92
823.57	11611.66
823.75	11647.95
823.93	11618.70
824.12	11687.27
824.30	11577.41
824.48	11586.92
824.66	11677.03
824.85	11579.79
825.03	11749.03
825.21	11814.81
825.39	11855.28
825.58	11870.60
825.76	11809.08
825.94	11828.82
826.12	11826.28
826.31	11762.47
826.49	11859.05
826.67	11776.97
826.85	11822.27
827.03	11863.96
827.22	11860.36
827.40	11823.82
827.58	11854.46
827.76	11895.91
827.95	11807.60
828.13	11848.32
828.31	11803.10
828.49	11789.75
828.67	11751.00
828.86	11660.07
829.04	11609.61
829.22	11558.57
829.40	11541.29
829.58	11474.03
829.77	11509.26
829.95	11488.53
830.13	11495.74
830.31	11440.36
830.49	11471.82
830.68	11474.03
830.86	11470.26
831.04	11432.58
831.22	11425.86
831.40	11458.06
831.59	11488.12
831.77	11405.88
831.95	11533.34
832.13	11461.17
832.31	11619.27
832.50	11630.17
832.68	11675.72
832.86	11727.98
833.04	11828.00
833.22	11689.07
833.40	11826.94
833.59	11687.27
833.77	11715.20
833.95	11358.53
834.13	11651.06
834.31	11393.51
834.49	11390.31
834.67	11342.72
834.86	11396.95
835.04	11359.75
835.22	11347.22
835.40	11293.07
835.58	11266.29
835.76	11328.87
835.95	11350.74
836.13	11391.54
836.31	11379.42
836.49	11463.87
836.67	11471.98
836.85	11383.84
837.03	11380.07
837.21	11385.15
837.40	11381.79
837.58	11346.89
837.76	11450.85
837.94	11428.32
838.12	11530.39
838.30	11446.10
838.48	11357.22
838.66	11310.19
838.85	11305.93
839.03	11313.23
839.21	11375.48
839.39	11355.41
839.57	11391.05
839.75	11358.03
839.93	11372.45
840.11	11407.76
840.29	11309.29
840.47	11252.44
840.66	11245.15
840.84	11190.59
841.02	11163.81
841.20	11129.15
841.38	11059.93
841.56	11079.27
841.74	11154.38
841.92	11017.09
842.10	11052.48
842.28	11094.58
842.46	11033.14
842.65	11056.41
842.83	11127.92
843.01	11134.31
843.19	11081.23
843.37	11166.51
843.55	11154.55
843.73	11196.41
843.91	11224.34
844.09	11137.02
844.27	11195.75
844.45	11068.94
844.63	11100.73
844.81	11002.26
844.99	11021.35
845.17	10945.82
845.35	10996.69
845.54	10921.41
845.72	10911.74
845.90	10857.10
846.08	10866.44
846.26	10858.99
846.44	11007.91
846.62	10919.61
846.80	10934.43
846.98	10935.74
847.16	10928.86
847.34	10942.79
847.52	10929.68
847.70	10926.49
847.88	11001.03
848.06	10997.26
848.24	11017.74
848.42	11047.97
848.60	11034.37
848.78	11042.48
848.96	11054.36
849.14	11023.40
849.32	11132.43
849.50	11045.27
849.68	11058.54
849.86	11099.83
850.04	10971.46
850.22	11029.05
850.40	10887.08
850.58	10925.42
850.76	11035.52
850.94	10740.29
851.12	10939.84
851.30	10882.09
851.48	10944.34
851.66	10891.67
851.84	10875.62
852.02	10853.82
852.20	10889.46
852.38	10848.25
852.56	10870.54
852.74	10854.56
852.92	10784.28
853.10	10753.64
853.28	10759.70
853.46	10596.11
853.64	10754.54
853.82	10622.57
854.00	10671.64
854.18	10606.18
854.36	10592.18
854.54	10665.17
854.72	10589.06
854.90	10639.12
855.07	10670.57
855.25	10637.89
855.43	10711.12
855.61	10671.56
855.79	10631.50
855.97	10629.37
856.15	10592.67
856.33	10591.77
856.51	10605.04
856.69	10498.05
856.87	10495.18
857.05	10456.68
857.23	10459.55
857.41	10399.01
857.59	10409.17
857.77	10391.23
857.94	10397.78
858.12	10424.41
858.30	10430.47
858.48	10419.33
858.66	10441.28
858.84	10491.42
859.02	10458.08
859.20	10425.80
859.38	10598.40
859.56	10605.53
859.74	10590.62
859.92	10613.88
860.09	10549.58
860.27	10518.29
860.45	10423.42
860.63	10429.98
860.81	10503.87
860.99	10439.97
861.17	10368.46
861.35	10246.23
861.53	10193.81
861.70	10142.20
861.88	10296.78
862.06	10295.22
862.24	10226.82
862.42	10203.06
862.60	10230.18
862.78	10185.29
862.96	10261.06
863.14	10155.71
863.31	10222.80
863.49	10184.47
863.67	10196.26
863.85	10184.88
864.03	10206.34
864.21	10198.80
864.39	10245.82
864.56	10189.22
864.74	10281.13
864.92	10229.69
865.10	10241.40
865.28	10210.43
865.46	10305.62
865.64	10060.93
865.81	10127.86
865.99	10018.66
866.17	10096.40
866.35	9988.19
866.53	10032.75
866.71	10025.13
866.88	10074.86
867.06	9992.04
867.24	10113.53
867.42	10071.17
867.60	10123.60
867.78	10041.19
867.95	10230.10
868.13	10081.00
868.31	10210.03
868.49	10199.13
868.67	10149.00
868.84	10039.88
869.02	10077.89
869.20	9884.73
869.38	9963.53
869.56	9911.76
869.73	9884.97
869.91	9959.11
870.09	9951.41
870.27	9878.66
870.45	9934.94
870.62	9863.84
870.80	9931.34
870.98	9886.04
871.16	9899.96
871.34	9845.08
871.51	9865.80
871.69	9774.14
871.87	9839.92
872.05	9797.65
872.23	9793.63
872.40	9800.43
872.58	9912.82
872.76	9853.60
872.94	9863.84
873.11	9829.59
873.29	9791.75
873.47	9769.63
873.65	9766.76
873.83	9758.65
874.00	9795.35
874.18	9812.80
874.36	9815.59
874.54	9824.11
874.71	9765.45
874.89	9699.59
875.07	9712.53
875.25	9628.98
875.42	9645.69
875.60	9605.96
875.78	9648.64
875.96	9537.14
876.13	9660.51
876.31	9525.35
876.49	9554.68
876.66	9494.71
876.84	9614.80
877.02	9529.61
877.20	9562.79
877.37	9552.55
877.55	9575.73
877.73	9571.06
877.91	9565.98
878.08	9580.23
878.26	9551.81
878.44	9537.23
878.61	9547.14
878.79	9484.23
878.97	9459.32
879.15	9588.10
879.32	9511.26
879.50	9513.80
879.68	9582.36
879.85	9452.69
880.03	9553.69
880.21	9440.73
880.38	9521.58
880.56	9384.94
880.74	9473.41
880.92	9351.84
881.09	9445.15
881.27	9420.16
881.45	9487.26
881.62	9510.85
881.80	9474.07
881.98	9450.88
882.15	9536.24
882.33	9444.49
882.51	9462.60
882.68	9370.28
882.86	9428.60
883.04	9242.07
883.21	9295.98
883.39	9338.00
883.57	9214.38
883.74	9251.33
883.92	9337.51
884.10	9289.34
884.27	9312.93
884.45	9278.12
884.63	9346.36
884.80	9334.64
884.98	9421.72
885.16	9378.71
885.33	9423.03
885.51	9416.56
885.69	9424.75
885.86	9381.17
886.04	9433.93
886.21	9304.58
886.39	9452.03
886.57	9363.80
886.74	9491.60
886.92	9449.16
887.10	9502.00
887.27	9481.77
887.45	9511.26
887.62	9506.92
887.80	9483.90
887.98	9548.20
888.15	9439.50
888.33	9342.26
888.51	9416.23
888.68	9326.20
888.86	9312.77
889.03	9264.44
889.21	9299.99
889.39	9276.73
889.56	9303.18
889.74	9271.48
889.91	9231.75
890.09	9239.37
890.27	9259.52
890.44	9290.24
890.62	9263.13
890.79	9372.08
890.97	9412.38
891.14	9461.78
891.32	9528.30
891.50	9486.03
891.67	9540.75
891.85	9527.56
892.02	9488.24
892.20	9541.81
892.38	9474.48
892.55	9387.48
892.73	9482.91
892.90	9332.43
893.08	9439.83
893.25	9421.97
893.43	9501.51
893.60	9432.12
893.78	9531.33
893.96	9477.59
894.13	9550.58
894.31	9624.31
894.48	9633.97
894.66	9701.80
894.83	9725.15
895.01	9692.38
895.18	9717.45
895.36	9625.37
895.53	9684.60
895.71	9608.66
895.89	9613.25
896.06	9496.59
896.24	9558.12
896.41	9480.13
896.59	9553.12
896.76	9421.80
896.94	9533.95
897.11	9525.35
897.29	9550.58
897.46	9466.86
897.64	9508.39
897.81	9468.17
897.99	9377.08
898.16	9476.12
898.34	9515.44
898.51	9503.23
898.69	9513.80
898.86	9574.25
899.04	9580.97
899.21	9551.89
899.39	9640.77
899.56	9541.57
899.74	9625.45
899.91	9487.42
900.09	9530.02
900.26	9513.63
900.44	9464.07
900.61	9492.91
900.79	9576.38
900.96	9476.12
901.14	9470.79
901.31	9442.53
901.49	9465.96
901.66	9449.33
901.84	9460.80
902.01	9376.26
902.19	9404.35
902.36	9420.33
902.54	9455.88
902.71	9476.85
902.88	9530.35
903.06	9417.95
903.23	9570.57
903.41	9490.53
903.58	9497.00
903.76	9434.91
903.93	9513.47
904.11	9510.85
904.28	9447.28
904.45	9402.22
904.63	9363.80
904.80	9309.98
904.98	9368.56
905.15	9236.01
905.33	9335.95
905.50	9275.99
905.68	9301.14
905.85	9223.31
906.02	9279.02
906.20	9288.11
906.37	9216.68
906.55	9173.34
906.72	9246.58
906.90	9161.55
907.07	9181.29
907.24	9190.30
907.42	9118.95
907.59	9159.01
907.77	9126.90
907.94	9136.97
908.11	9194.97
908.29	9217.33
908.46	9215.12
908.64	9230.44
908.81	9309.49
908.98	9212.09
909.16	9299.99
909.33	9230.93
909.51	9212.34
909.68	9194.64
909.85	9253.62
910.03	9201.03
910.20	9166.30
910.37	9151.96
910.55	9170.07
910.72	9093.72
910.90	9085.85
911.07	9096.67
911.24	9021.55
911.42	9092.16
911.59	8954.37
911.76	9039.57
911.94	8912.68
912.11	8925.87
912.29	8833.79
912.46	8792.91
912.63	8842.23
912.81	8766.37
912.98	8844.85
913.15	8760.80
913.33	8810.77
913.50	8810.36
913.67	8773.91
913.85	8712.55
914.02	8755.64
914.19	8755.56
914.37	8721.23
914.54	8743.19
914.71	8751.13
914.89	8734.50
915.06	8732.46
915.23	8705.42
915.41	8654.63
915.58	8609.01
915.75	8601.71
915.93	8528.40
916.10	8514.80
916.27	8494.65
916.45	8500.95
916.62	8451.31
916.79	8523.81
916.97	8519.06
917.14	8491.53
917.31	8548.79
917.49	8525.61
917.66	8479.66
917.83	8523.48
918.00	8478.75
918.18	8474.99
918.35	8437.14
918.52	8460.08
918.70	8354.89
918.87	8338.92
919.04	8332.61
919.21	8309.76
919.39	8205.06
919.56	8207.44
919.73	8188.02
919.91	8208.59
920.08	8179.34
920.25	8138.71
920.42	8209.65
920.60	8183.36
920.77	8142.15
920.94	8214.40
921.11	8112.82
921.29	8184.99
921.46	8109.55
921.63	8191.30
921.81	8114.87
921.98	8109.22
922.15	8065.72
922.32	8120.11
922.50	8076.86
922.67	8070.23
922.84	8033.94
923.01	7979.13
923.19	7987.24
923.36	7969.71
923.53	7851.91
923.70	7915.56
923.87	7839.21
924.05	7885.34
924.22	7836.27
924.39	7893.94
924.56	7870.26
924.74	7864.20
924.91	7875.75
925.08	7889.51
925.25	7881.24
925.43	7875.83
925.60	7777.69
925.77	7883.70
925.94	7805.96
926.11	7789.00
926.29	7814.97
926.46	7804.15
926.63	7799.65
926.80	7803.17
926.97	7790.06
927.15	7811.61
927.32	7731.25
927.49	7717.32
927.66	7702.08
927.83	7706.10
928.01	7604.68
928.18	7617.46
928.35	7505.89
928.52	7553.81
928.69	7514.08
928.87	7496.14
929.04	7475.91
929.21	7499.25
929.38	7407.01
929.55	7503.92
929.72	7437.98
929.90	7441.83
930.07	7409.96
930.24	7359.91
930.41	7358.76
930.58	7318.29
930.75	7343.85
930.93	7291.92
931.10	7249.15
931.27	7221.30
931.44	7220.40
931.61	7228.43
931.78	7259.72
931.95	7213.19
932.13	7195.58
932.30	7277.42
932.47	7194.76
932.64	7215.81
932.81	7203.85
932.98	7193.04
933.15	7175.10
933.33	7115.79
933.50	7176.25
933.67	7110.63
933.84	7100.96
934.01	7116.86
934.18	7038.62
934.35	7033.79
934.52	7007.82
934.70	7022.40
934.87	6991.60
935.04	6950.48
935.21	6953.84
935.38	6970.06
935.55	6933.85
935.72	6996.19
935.89	6914.35
936.06	6998.65
936.24	6920.09
936.41	6995.78
936.58	6939.34
936.75	6943.52
936.92	6971.53
937.09	6947.12
937.26	6894.20
937.43	6921.23
937.60	6955.31
937.77	6932.05
937.94	6896.99
938.12	6939.99
938.29	6852.26
938.46	6863.64
938.63	6822.44
938.80	6853.49
938.97	6787.21
939.14	6769.85
939.31	6750.51
939.48	6733.31
939.65	6663.93
939.82	6678.59
939.99	6687.11
940.16	6710.78
940.33	6698.33
940.50	6687.19
940.67	6697.84
940.85	6698.41
941.02	6674.74
941.19	6720.12
941.36	6682.77
941.53	6725.69
941.70	6725.53
941.87	6657.95
942.04	6661.47
942.21	6654.67
942.38	6605.68
942.55	6588.81
942.72	6564.40
942.89	6573.98
943.06	6505.25
943.23	6477.15
943.40	6460.85
943.57	6464.70
943.74	6447.33
943.91	6461.59
944.08	6481.17
944.25	6499.02
944.42	6409.81
944.59	6408.91
944.76	6440.62
944.93	6411.29
945.10	6420.05
945.27	6390.65
945.44	6340.51
945.61	6350.10
945.78	6310.86
945.95	6329.94
946.12	6298.57
946.29	6365.82
946.46	6327.08
946.63	6299.96
946.80	6280.71
946.97	6275.55
947.14	6235.25
947.31	6320.28
947.48	6248.76
947.65	6248.68
947.82	6211.65
947.99	6265.56
948.16	6185.36
948.33	6226.81
948.50	6182.16
948.67	6197.48
948.84	6182.24
949.01	6167.50
949.18	6172.58
949.35	6187.65
949.52	6154.56
949.68	6148.58
949.85	6099.26
950.02	6103.19
950.19	6051.91
950.36	6048.47
950.53	6049.13
950.70	6032.91
950.87	6004.48
951.04	6074.03
951.21	5981.63
951.38	6002.02
951.55	6016.11
951.72	5986.05
951.89	5979.66
952.06	6030.28
952.23	6015.79
952.39	5992.36
952.56	5944.35
952.73	6020.62
952.90	5952.22
953.07	6002.84
953.24	5940.09
953.41	5985.07
953.58	5943.12
953.75	5978.18
953.92	5908.47
954.09	5911.26
954.25	5859.32
954.42	5892.74
954.59	5857.76
954.76	5827.37
954.93	5803.94
955.10	5854.73
955.27	5789.61
955.44	5782.97
955.61	5763.07
955.77	5776.17
955.94	5781.42
956.11	5754.38
956.28	5764.05
956.45	5727.51
956.62	5738.57
956.79	5732.35
956.96	5747.50
957.12	5730.46
957.29	5707.53
957.46	5735.38
957.63	5708.34
957.80	5713.59
957.97	5705.56
958.14	5762.16
958.30	5696.55
958.47	5710.88
958.64	5675.00
958.81	5711.78
958.98	5656.57
959.15	5669.11
959.32	5653.13
959.48	5637.32
959.65	5566.13
959.82	5615.20
959.99	5556.71
960.16	5576.37
960.33	5510.59
960.49	5527.47
960.66	5505.92
960.83	5527.80
961.00	5516.65
961.17	5508.38
961.33	5542.46
961.50	5534.59
961.67	5512.80
961.84	5531.89
962.01	5491.18
962.18	5543.36
962.34	5474.47
962.51	5517.88
962.68	5495.52
962.85	5526.73
963.02	5477.74
963.18	5525.50
963.35	5477.33
963.52	5492.08
963.69	5466.77
963.86	5494.86
964.02	5426.54
964.19	5420.15
964.36	5404.84
964.53	5381.41
964.69	5333.57
964.86	5381.90
965.03	5342.66
965.20	5370.35
965.37	5270.16
965.53	5312.68
965.70	5298.67
965.87	5331.85
966.04	5320.05
966.20	5318.00
966.37	5342.09
966.54	5279.34
966.71	5296.05
966.87	5287.86
967.04	5281.22
967.21	5256.64
967.38	5269.10
967.54	5277.04
967.71	5264.26
967.88	5278.76
968.05	5267.13
968.21	5264.34
968.38	5253.37
968.55	5281.14
968.72	5251.73
968.88	5195.70
969.05	5239.36
969.22	5213.64
969.39	5210.44
969.55	5194.22
969.72	5145.32
969.89	5152.20
970.05	5166.04
970.22	5155.56
970.39	5122.22
970.56	5168.25
970.72	5131.96
970.89	5142.94
971.06	5102.64
971.22	5102.64
971.39	5098.38
971.56	5132.54
971.73	5069.21
971.89	5089.86
972.06	5066.18
972.23	5086.09
972.39	5017.85
972.56	5041.94
972.73	5006.87
972.89	5051.03
973.06	5065.20
973.23	5073.97
973.39	5035.71
973.56	5061.68
973.73	4997.54
973.89	5028.58
974.06	4976.89
974.23	5010.23
974.39	4993.77
974.56	4960.26
974.73	4950.60
974.89	4951.99
975.06	4931.51
975.23	4985.00
975.39	4918.73
975.56	4927.41
975.73	4930.20
975.89	4914.96
976.06	4919.30
976.23	4907.92
976.39	4892.76
976.56	4905.54
976.73	4877.28
976.89	4873.59
977.06	4875.56
977.23	4902.26
977.39	4865.73
977.56	4898.99
977.72	4853.44
977.89	4890.30
978.06	4867.69
978.22	4877.69
978.39	4890.71
978.56	4909.06
978.72	4854.59
978.89	4876.95
979.05	4839.92
979.22	4855.00
979.39	4795.11
979.55	4782.58
979.72	4765.79
979.88	4762.92
980.05	4714.34
980.22	4761.77
980.38	4723.44
980.55	4728.51
980.71	4722.78
980.88	4709.26
981.05	4713.11
981.21	4697.71
981.38	4689.03
981.54	4723.93
981.71	4675.43
981.88	4706.07
982.04	4711.56
982.21	4703.04
982.37	4728.35
982.54	4728.19
982.70	4663.96
982.87	4719.26
983.04	4644.55
983.20	4691.49
983.37	4662.24
983.53	4680.10
983.70	4631.11
983.86	4638.32
984.03	4586.47
984.20	4611.94
984.36	4585.98
984.53	4611.78
984.69	4608.75
984.86	4600.56
985.02	4608.01
985.19	4632.01
985.35	4603.18
985.52	4606.62
985.68	4573.61
985.85	4592.12
986.02	4585.98
986.18	4584.75
986.35	4579.01
986.51	4604.73
986.68	4588.68
986.84	4571.39
987.01	4567.95
987.17	4585.32
987.34	4564.59
987.50	4576.31
987.67	4555.75
987.83	4607.11
988.00	4587.04
988.16	4557.06
988.33	4525.11
988.49	4551.73
988.66	4479.48
988.82	4482.59
988.99	4459.33
989.15	4483.17
989.32	4411.24
989.48	4442.70
989.65	4417.71
989.81	4438.52
989.98	4416.08
990.14	4436.31
990.31	4415.26
990.47	4428.28
990.64	4391.75
990.80	4399.28
990.97	4377.98
991.13	4396.09
991.30	4406.49
991.46	4391.58
991.63	4375.85
991.79	4412.47
991.95	4370.12
992.12	4422.22
992.28	4389.12
992.45	4385.52
992.61	4414.77
992.78	4387.49
992.94	4366.35
993.11	4417.30
993.27	4393.38
993.44	4377.33
993.60	4363.40
993.76	4385.68
993.93	4344.15
994.09	4351.28
994.26	4346.77
994.42	4315.07
994.59	4325.15
994.75	4331.29
994.91	4296.80
995.08	4280.75
995.24	4261.50
995.41	4259.04
995.57	4272.55
995.74	4230.94
995.90	4242.98
996.06	4261.74
996.23	4246.91
996.39	4210.46
996.56	4226.84
996.72	4223.48
996.88	4225.37
997.05	4230.61
997.21	4221.76
997.38	4226.19
997.54	4183.02
997.70	4213.90
997.87	4208.41
998.03	4208.41
998.20	4165.65
998.36	4183.51
998.52	4167.94
998.69	4233.89
998.85	4193.58
999.02	4210.54
999.18	4187.03
999.34	4213.33
999.51	4192.60
999.67	4195.39
999.83	4184.00
1000.00	4183.84
1000.16	4168.68
1000.33	4198.01
1000.49	4154.26
1000.65	4173.43
1000.82	4181.21
1000.98	4157.87
1001.14	4143.20
1001.31	4182.94
1001.47	4152.38
1001.63	4136.08
1001.80	4110.27
1001.96	4134.60
1002.12	4118.87
1002.29	4119.12
1002.45	4109.13
1002.61	4132.15
1002.78	4121.99
1002.94	4105.19
1003.10	4105.85
1003.27	4110.36
1003.43	4076.11
1003.59	4086.19
1003.76	4065.79
1003.92	4063.74
1004.08	4069.64
1004.25	4087.91
1004.41	4054.90
1004.57	4039.41
1004.74	4011.64
1004.90	4077.18
1005.06	4019.51
1005.23	4030.16
1005.39	4022.46
1005.55	4060.14
1005.71	4034.66
1005.88	4019.10
1006.04	4027.21
1006.20	4027.45
1006.37	3975.60
1006.53	3981.91
1006.69	3984.45
1006.85	3992.56
1007.02	3978.55
1007.18	3982.89
1007.34	3968.96
1007.51	3990.02
1007.67	3964.05
1007.83	3977.97
1007.99	3950.94
1008.16	3945.13
1008.32	3932.02
1008.48	3949.47
1008.64	3933.00
1008.81	3941.60
1008.97	3910.47
1009.13	3938.33
1009.29	3931.85
1009.46	3943.16
1009.62	3938.98
1009.78	3940.78
1009.95	3924.65
1010.11	3938.41
1010.27	3934.97
1010.43	3911.87
1010.59	3948.73
1010.76	3923.01
1010.92	3919.65
1011.08	3918.34
1011.24	3898.02
1011.41	3933.41
1011.57	3890.57
1011.73	3910.39
1011.89	3891.88
1012.06	3915.22
1012.22	3877.87
1012.38	3908.92
1012.54	3884.59
1012.70	3883.36
1012.87	3863.21
1013.03	3879.43
1013.19	3869.02
1013.35	3874.18
1013.51	3834.13
1013.68	3862.06
1013.84	3841.91
1014.00	3834.13
1014.16	3830.68
1014.32	3847.40
1014.49	3859.77
1014.65	3871.56
1014.81	3808.48
1014.97	3842.97
1015.13	3817.99
1015.30	3833.88
1015.46	3808.98
1015.62	3823.89
1015.78	3826.18
1015.94	3825.11
1016.10	3819.54
1016.27	3812.91
1016.43	3800.87
1016.59	3820.28
1016.75	3798.00
1016.91	3804.31
1017.07	3786.86
1017.24	3789.81
1017.40	3788.09
1017.56	3799.88
1017.72	3790.30
1017.88	3813.24
1018.04	3754.75
1018.21	3795.71
1018.37	3751.47
1018.53	3789.32
1018.69	3772.03
1018.85	3763.35
1019.01	3760.32
1019.17	3752.21
1019.34	3741.56
1019.50	3739.67
1019.66	3709.85
1019.82	3717.47
1019.98	3717.64
1020.14	3738.03
1020.30	3726.32
1020.46	3731.40
1020.63	3707.31
1020.79	3724.19
1020.95	3718.78
1021.11	3737.05
1021.27	3715.51
1021.43	3712.97
1021.59	3724.93
1021.75	3702.07
1021.91	3710.76
1022.07	3688.80
1022.24	3696.75
1022.40	3702.65
1022.56	3666.52
1022.72	3714.03
1022.88	3694.86
1023.04	3707.48
1023.20	3680.36
1023.36	3679.13
1023.52	3694.45
1023.68	3690.11
1023.84	3654.72
1024.01	3669.96
1024.17	3658.90
1024.33	3663.08
1024.49	3652.59
1024.65	3651.86
1024.81	3667.50
1024.97	3663.82
1025.13	3663.90
1025.29	3678.97
1025.45	3645.63
1025.61	3701.83
1025.77	3670.04
1025.93	3676.76
1026.09	3653.08
1026.25	3678.56
1026.41	3639.08
1026.57	3638.34
1026.73	3648.25
1026.90	3634.73
1027.06	3626.95
1027.22	3645.63
1027.38	3611.14
1027.54	3630.88
1027.70	3626.13
1027.86	3628.51
1028.02	3603.61
1028.18	3618.68
1028.34	3604.59
1028.50	3622.53
1028.66	3585.67
1028.82	3623.43
1028.98	3591.15
1029.14	3594.19
1029.30	3599.26
1029.46	3598.53
1029.62	3610.41
1029.78	3592.96
1029.94	3605.41
1030.10	3592.30
1030.26	3568.54
1030.42	3586.16
1030.58	3573.05
1030.74	3560.19
1030.90	3556.26
1031.06	3575.10
1031.22	3545.44
1031.38	3561.66
1031.54	3532.75
1031.70	3545.69
1031.86	3549.05
1032.02	3541.10
1032.18	3527.83
1032.34	3529.88
1032.50	3543.23
1032.66	3562.32
1032.82	3530.62
1032.98	3552.49
1033.14	3535.12
1033.30	3554.21
1033.45	3532.50
1033.61	3563.22
1033.77	3545.12
1033.93	3542.25
1034.09	3533.40
1034.25	3538.07
1034.41	3522.59
1034.57	3533.57
1034.73	3504.98
1034.89	3528.24
1035.05	3518.98
1035.21	3511.28
1035.37	3518.25
1035.53	3498.91
1035.69	3514.97
1035.85	3525.62
1036.01	3501.70
1036.16	3524.23
1036.32	3518.00
1036.48	3500.63
1036.64	3469.59
1036.80	3505.96
1036.96	3502.03
1037.12	3470.65
1037.28	3480.32
1037.44	3490.97
1037.60	3488.10
1037.76	3483.84
1037.91	3474.67
1038.07	3483.84
1038.23	3471.06
1038.39	3466.39
1038.55	3468.60
1038.71	3492.61
1038.87	3461.72
1039.03	3494.74
1039.19	3474.26
1039.35	3474.99
1039.50	3472.37
1039.66	3472.29
1039.82	3465.41
1039.98	3463.61
1040.14	3453.78
1040.30	3460.82
1040.46	3442.31
1040.62	3444.11
1040.77	3453.78
1040.93	3473.60
1041.09	3445.09
1041.25	3450.83
1041.41	3437.72
1041.57	3433.87
1041.73	3433.87
1041.88	3433.87

