SpectraSuite Data File
++++++++++++++++++++++++++++++++++++
Date: Tue Sep 20 11:42:19 EDT 2022
User: Laboratoire
Dark Spectrum Present: No
Reference Spectrum Present: No
Number of Sampled Component Spectra: 1
Spectrometers: FLMT00174
Integration Time (usec): 15000 (FLMT00174)
Spectra Averaged: 25 (FLMT00174)
Boxcar Smoothing: 0 (FLMT00174)
Correct for Electrical Dark: No (FLMT00174)
Strobe/Lamp Enabled: No (FLMT00174)
Correct for Detector Non-linearity: No (FLMT00174)
Correct for Stray Light: No (FLMT00174)
Number of Pixels in Processed Spectrum: 3648
>>>>>Begin Processed Spectral Data<<<<<
345.74	3147.24
345.96	3147.24
346.18	3147.24
346.39	3161.74
346.61	3197.53
346.83	3189.34
347.05	3201.96
347.27	3204.17
347.49	3204.09
347.71	3208.68
347.93	3207.20
348.15	3213.26
348.36	3201.71
348.58	3213.84
348.80	3197.62
349.02	3219.41
349.24	3201.06
349.46	3324.18
349.68	3313.45
349.90	3334.99
350.11	3319.76
350.33	3331.88
350.55	3333.03
350.77	3340.48
350.99	3317.79
351.21	3336.96
351.43	3315.33
351.65	3340.16
351.86	3316.97
352.08	3308.62
352.30	3315.25
352.52	3353.26
352.74	3305.34
352.96	3303.78
353.18	3334.50
353.39	3331.06
353.61	3326.15
353.83	3340.16
354.05	3356.21
354.27	3342.04
354.49	3342.12
354.70	3338.11
354.92	3314.27
355.14	3317.79
355.36	3315.25
355.58	3330.90
355.80	3318.20
356.02	3331.47
356.23	3324.02
356.45	3325.66
356.67	3319.68
356.89	3361.29
357.11	3320.82
357.33	3354.82
357.54	3321.48
357.76	3340.81
357.98	3307.47
358.20	3352.77
358.42	3333.52
358.63	3340.89
358.85	3335.65
359.07	3361.95
359.29	3317.05
359.51	3325.66
359.73	3315.17
359.94	3334.34
360.16	3311.57
360.38	3333.19
360.60	3319.59
360.82	3331.96
361.03	3344.41
361.25	3341.88
361.47	3361.95
361.69	3352.03
361.91	3322.71
362.12	3349.74
362.34	3347.36
362.56	3357.52
362.78	3326.56
363.00	3348.18
363.21	3326.97
363.43	3358.01
363.65	3351.54
363.87	3349.08
364.09	3366.78
364.30	3331.80
364.52	3333.68
364.74	3350.23
364.96	3339.83
365.17	3352.28
365.39	3334.26
365.61	3325.16
365.83	3343.19
366.05	3355.56
366.26	3326.88
366.48	3350.39
366.70	3359.00
366.92	3350.89
367.13	3327.95
367.35	3355.31
367.57	3344.01
367.79	3351.95
368.01	3349.08
368.22	3357.69
368.44	3337.62
368.66	3357.36
368.88	3350.39
369.09	3340.89
369.31	3349.99
369.53	3356.05
369.75	3359.98
369.96	3372.84
370.18	3361.86
370.40	3382.83
370.62	3360.72
370.83	3357.03
371.05	3363.99
371.27	3355.56
371.49	3353.10
371.70	3359.57
371.92	3360.63
372.14	3347.28
372.36	3354.74
372.57	3382.34
372.79	3372.43
373.01	3371.53
373.22	3350.56
373.44	3369.73
373.66	3360.72
373.88	3380.13
374.09	3355.39
374.31	3377.43
374.53	3354.00
374.75	3383.98
374.96	3365.80
375.18	3384.96
375.40	3369.97
375.61	3383.16
375.83	3360.63
376.05	3365.47
376.27	3389.96
376.48	3378.49
376.70	3376.36
376.92	3378.74
377.13	3381.20
377.35	3361.86
377.57	3375.63
377.79	3377.10
378.00	3381.93
378.22	3396.92
378.44	3367.02
378.65	3406.59
378.87	3391.35
379.09	3396.19
379.30	3394.96
379.52	3390.70
379.74	3377.35
379.96	3381.11
380.17	3389.72
380.39	3384.39
380.61	3391.19
380.82	3375.13
381.04	3378.90
381.26	3412.24
381.47	3398.73
381.69	3411.18
381.91	3396.27
382.12	3416.42
382.34	3424.20
382.56	3436.00
382.77	3413.64
382.99	3411.42
383.21	3404.79
383.42	3432.64
383.64	3407.82
383.86	3417.16
384.07	3432.72
384.29	3426.17
384.51	3397.66
384.72	3430.35
384.94	3423.88
385.16	3427.81
385.37	3426.74
385.59	3426.50
385.81	3446.73
386.02	3431.99
386.24	3436.00
386.46	3436.82
386.67	3452.14
386.89	3467.46
387.11	3463.61
387.32	3450.83
387.54	3461.23
387.76	3472.54
387.97	3474.91
388.19	3462.05
388.40	3475.81
388.62	3463.93
388.84	3462.46
389.05	3476.47
389.27	3477.61
389.49	3487.36
389.70	3454.02
389.92	3488.59
390.14	3480.56
390.35	3482.20
390.57	3484.91
390.78	3490.56
391.00	3491.05
391.22	3501.29
391.43	3500.88
391.65	3501.70
391.86	3527.67
392.08	3536.60
392.30	3524.31
392.51	3539.79
392.73	3562.97
392.95	3546.10
393.16	3543.97
393.38	3560.03
393.59	3544.38
393.81	3556.26
394.03	3551.92
394.24	3569.69
394.46	3544.13
394.67	3579.03
394.89	3561.58
395.11	3581.82
395.32	3614.66
395.54	3602.79
395.75	3572.48
395.97	3587.39
396.19	3564.12
396.40	3599.67
396.62	3624.25
396.83	3612.29
397.05	3615.89
397.26	3636.70
397.48	3631.46
397.70	3624.74
397.91	3644.48
398.13	3637.36
398.34	3653.49
398.56	3666.36
398.78	3652.51
398.99	3699.53
399.21	3655.87
399.42	3696.42
399.64	3670.37
399.85	3681.59
400.07	3687.74
400.29	3709.04
400.50	3694.70
400.72	3720.50
400.93	3697.48
401.15	3711.90
401.36	3731.89
401.58	3735.50
401.79	3745.49
402.01	3743.20
402.23	3755.48
402.44	3792.35
402.66	3780.14
402.87	3768.43
403.09	3783.58
403.30	3786.04
403.52	3766.87
403.73	3776.95
403.95	3805.45
404.16	3805.62
404.38	3809.88
404.60	3816.43
404.81	3838.22
405.03	3848.22
405.24	3843.96
405.46	3859.68
405.67	3862.88
405.89	3879.67
406.10	3862.22
406.32	3874.76
406.53	3895.40
406.75	3908.67
406.96	3912.60
407.18	3913.75
407.39	3904.66
407.61	3920.14
407.82	3921.53
408.04	3959.30
408.25	3926.78
408.47	3962.33
408.68	3957.25
408.90	3952.83
409.12	3994.36
409.33	4009.92
409.55	4013.53
409.76	3996.49
409.98	4005.50
410.19	4029.75
410.41	4044.08
410.62	4032.53
410.84	4042.77
411.05	4048.02
411.27	4100.69
411.48	4076.69
411.70	4091.02
411.91	4079.88
412.12	4114.21
412.34	4083.81
412.55	4114.04
412.77	4124.53
412.98	4135.83
413.20	4133.46
413.41	4162.87
413.63	4154.10
413.84	4153.53
414.06	4201.04
414.27	4187.93
414.49	4198.34
414.70	4204.07
414.92	4248.47
415.13	4220.54
415.35	4243.72
415.56	4269.52
415.78	4235.53
415.99	4274.68
416.21	4307.78
416.42	4326.21
416.63	4341.37
416.85	4345.30
417.06	4339.24
417.28	4308.19
417.49	4379.38
417.71	4332.27
417.92	4356.85
418.14	4367.91
418.35	4396.17
418.57	4412.88
418.78	4424.76
418.99	4434.67
419.21	4457.77
419.42	4462.36
419.64	4449.91
419.85	4463.51
420.07	4519.62
420.28	4508.23
420.50	4509.87
420.71	4531.58
420.92	4515.28
421.14	4575.57
421.35	4569.10
421.57	4553.70
421.78	4585.07
422.00	4590.97
422.21	4633.65
422.42	4643.24
422.64	4622.18
422.85	4668.06
423.07	4694.44
423.28	4675.59
423.50	4693.13
423.71	4711.31
423.92	4765.05
424.14	4723.35
424.35	4743.10
424.57	4784.87
424.78	4817.23
424.99	4836.48
425.21	4851.72
425.42	4853.52
425.64	4836.81
425.85	4896.28
426.06	4869.09
426.28	4896.69
426.49	4950.19
426.71	4930.12
426.92	4949.04
427.13	4961.98
427.35	5027.93
427.56	5042.59
427.78	5028.75
427.99	5055.86
428.20	5114.35
428.42	5113.70
428.63	5116.97
428.84	5068.07
429.06	5144.99
429.27	5177.59
429.49	5186.44
429.70	5244.27
429.91	5192.83
430.13	5226.01
430.34	5254.60
430.56	5254.43
430.77	5318.00
430.98	5275.49
431.20	5323.90
431.41	5346.10
431.62	5414.26
431.84	5377.64
432.05	5402.54
432.26	5398.28
432.48	5386.24
432.69	5507.97
432.91	5471.35
433.12	5498.63
433.33	5531.81
433.55	5599.23
433.76	5618.32
433.97	5554.58
434.19	5579.40
434.40	5665.50
434.61	5647.31
434.83	5716.54
435.04	5657.31
435.25	5754.46
435.47	5741.28
435.68	5711.46
435.89	5825.57
436.11	5796.98
436.32	5841.13
436.53	5854.90
436.75	5818.61
436.96	5886.44
437.17	5846.13
437.39	5914.29
437.60	5927.31
437.81	5958.61
438.03	5985.23
438.24	5999.16
438.45	6106.31
438.67	6065.10
438.88	6081.16
439.09	6144.73
439.31	6133.09
439.52	6152.26
439.73	6176.02
439.94	6115.89
440.16	6178.15
440.37	6190.68
440.58	6315.94
440.80	6282.51
441.01	6247.70
441.22	6400.15
441.44	6374.92
441.65	6342.40
441.86	6390.56
442.08	6425.87
442.29	6420.87
442.50	6509.67
442.71	6469.94
442.93	6507.05
443.14	6502.30
443.35	6619.44
443.57	6550.63
443.78	6628.13
443.99	6663.27
444.20	6608.55
444.42	6705.21
444.63	6710.62
444.84	6752.40
445.06	6836.86
445.27	6770.26
445.48	6769.11
445.69	6815.80
445.91	6827.11
446.12	6784.18
446.33	6891.17
446.54	6987.92
446.76	6929.34
446.97	6969.81
447.18	6969.48
447.39	7040.26
447.61	7081.55
447.82	7111.37
448.03	7062.95
448.25	7142.99
448.46	7215.24
448.67	7253.33
448.88	7185.01
449.10	7267.75
449.31	7353.35
449.52	7269.14
449.73	7351.47
449.95	7435.76
450.16	7386.29
450.37	7514.16
450.58	7655.14
450.79	7475.91
451.01	7558.97
451.22	7483.85
451.43	7536.85
451.64	7659.73
451.86	7677.83
452.07	7737.88
452.28	7773.76
452.49	7877.47
452.71	7778.10
452.92	7813.57
453.13	7893.36
453.34	7893.69
453.55	8003.87
453.77	8051.88
453.98	8045.65
454.19	8028.61
454.40	8091.61
454.62	8159.76
454.83	8066.87
455.04	8260.52
455.25	8141.41
455.46	8459.42
455.68	8294.19
455.89	8307.79
456.10	8332.61
456.31	8428.95
456.52	8467.29
456.74	8460.57
456.95	8631.29
457.16	8578.61
457.37	8679.37
457.58	8667.66
457.80	8644.56
458.01	8667.09
458.22	9044.89
458.43	8798.65
458.64	8923.82
458.86	8807.25
459.07	8918.41
459.28	8928.73
459.49	9055.38
459.70	9295.32
459.91	9206.52
460.13	9171.13
460.34	9251.49
460.55	9205.62
460.76	9406.57
460.97	9377.65
461.19	9406.65
461.40	9669.53
461.61	9520.43
461.82	9577.86
462.03	9659.78
462.24	9677.72
462.46	9651.26
462.67	9708.52
462.88	9840.33
463.09	9834.26
463.30	9975.57
463.51	9903.57
463.72	10123.36
463.94	10134.50
464.15	10147.85
464.36	10093.13
464.57	10376.07
464.78	10367.06
464.99	10431.78
465.20	10361.33
465.42	10559.82
465.63	10517.71
465.84	10563.91
466.05	10735.94
466.26	10757.16
466.47	10870.62
466.68	10809.75
466.90	11009.06
467.11	10948.28
467.32	11078.12
467.53	11215.58
467.74	11070.66
467.95	11192.39
468.16	11378.84
468.37	11483.62
468.59	11492.05
468.80	11665.39
469.01	11507.70
469.22	11758.54
469.43	12007.00
469.64	11858.89
469.85	11979.14
470.06	12042.47
470.28	12213.35
470.49	11995.77
470.70	12238.50
470.91	12505.63
471.12	12364.65
471.33	12688.31
471.54	12518.41
471.75	12622.70
471.96	12979.86
472.17	12909.66
472.39	13196.62
472.60	12967.00
472.81	13315.65
473.02	13190.80
473.23	13501.19
473.44	13566.73
473.65	13549.85
473.86	13704.43
474.07	13734.83
474.28	13850.58
474.49	14164.00
474.71	14127.13
474.92	14296.71
475.13	14232.48
475.34	14384.36
475.55	14387.55
475.76	14558.03
475.97	14930.10
476.18	14858.10
476.39	15069.45
476.60	15213.54
476.81	15223.94
477.02	15481.82
477.23	15481.09
477.44	15477.40
477.65	15781.57
477.87	15992.92
478.08	16018.97
478.29	16084.66
478.50	16503.92
478.71	16318.54
478.92	16552.75
479.13	16629.83
479.34	16705.77
479.55	16921.30
479.76	16933.10
479.97	17019.60
480.18	17464.50
480.39	17201.95
480.60	17641.53
480.81	17707.39
481.02	17755.97
481.23	17901.38
481.44	18193.50
481.65	18326.70
481.86	18611.12
482.07	18277.88
482.28	19027.35
482.49	18847.54
482.71	18912.50
482.92	19124.10
483.13	19420.31
483.34	19273.43
483.55	19509.11
483.76	19568.83
483.97	19866.53
484.18	19880.12
484.39	20155.13
484.60	20032.66
484.81	20501.72
485.02	20388.92
485.23	20731.18
485.44	20850.21
485.65	21087.61
485.86	20943.02
486.07	21357.69
486.28	21294.86
486.49	21572.32
486.70	21702.24
486.91	21990.68
487.12	21906.38
487.33	21870.09
487.54	22379.47
487.75	22474.08
487.96	22545.68
488.17	22504.39
488.38	22799.05
488.59	22926.76
488.80	23105.43
489.01	23137.87
489.22	23486.92
489.43	23501.67
489.64	23411.40
489.85	23988.51
490.06	23597.02
490.26	24010.14
490.47	24030.37
490.68	24310.45
490.89	24623.47
491.10	24346.91
491.31	24769.44
491.52	25002.26
491.73	24953.43
491.94	25015.45
492.15	25253.75
492.36	25411.69
492.57	25422.75
492.78	25406.53
492.99	25583.14
493.20	25919.42
493.41	25965.38
493.62	26096.86
493.83	26116.35
494.04	26272.90
494.25	26592.87
494.46	26586.32
494.67	26570.18
494.88	26886.47
495.08	26904.33
495.29	27059.16
495.50	27329.16
495.71	27290.74
495.92	27615.71
496.13	27719.67
496.34	27536.99
496.55	27799.05
496.76	28220.85
496.97	27779.30
497.18	28282.12
497.39	28139.34
497.60	28660.50
497.81	28323.00
498.02	28604.72
498.22	28377.06
498.43	28941.24
498.64	29061.00
498.85	29046.34
499.06	29027.83
499.27	29567.51
499.48	28962.37
499.69	29361.97
499.90	29547.52
500.11	29810.56
500.32	30111.94
500.52	29774.03
500.73	30405.37
500.94	30377.27
501.15	30477.05
501.36	30525.06
501.57	30330.25
501.78	30695.53
501.99	31033.85
502.20	30926.05
502.41	31052.20
502.61	31022.55
502.82	31406.50
503.03	31088.58
503.24	31637.19
503.45	31293.45
503.66	31874.18
503.87	31716.73
504.08	31997.55
504.28	31859.59
504.49	32111.49
504.70	32257.47
504.91	32416.97
505.12	32238.06
505.33	32699.75
505.54	32748.41
505.75	32871.21
505.95	33055.28
506.16	33020.14
506.37	32865.23
506.58	33416.54
506.79	33058.72
507.00	33600.12
507.21	33238.53
507.41	33357.72
507.62	33573.58
507.83	34128.58
508.04	33687.12
508.25	34148.16
508.46	33910.84
508.67	34400.22
508.87	34136.36
509.08	34661.05
509.29	34598.14
509.50	34691.12
509.71	34824.07
509.92	35070.65
510.12	34786.14
510.33	35127.50
510.54	35047.30
510.75	35310.83
510.96	35611.64
511.17	35797.51
511.37	35725.01
511.58	35947.18
511.79	35731.24
512.00	35685.77
512.21	36256.26
512.42	36270.43
512.62	36388.88
512.83	36550.84
513.04	36448.93
513.25	36924.14
513.46	36235.61
513.66	37107.39
513.87	36779.23
514.08	37224.86
514.29	37042.35
514.50	37038.09
514.71	37462.10
514.91	37208.97
515.12	37303.26
515.33	37744.47
515.54	37651.66
515.75	38035.37
515.95	37724.40
516.16	37789.94
516.37	38337.40
516.58	38443.73
516.78	38147.02
516.99	38517.05
517.20	38527.94
517.41	38612.57
517.62	38830.55
517.82	38745.11
518.03	39269.72
518.24	39718.80
518.45	39136.93
518.66	39609.68
518.86	39329.68
519.07	39930.97
519.28	39234.82
519.49	39991.26
519.69	39985.12
519.90	40096.36
520.11	40238.49
520.32	40112.09
520.52	40613.60
520.73	40232.76
520.94	40849.52
521.15	40791.85
521.36	40404.70
521.56	41320.72
521.77	40715.75
521.98	41316.62
522.19	40840.02
522.39	41350.86
522.60	41156.31
522.81	41429.02
523.02	41171.13
523.22	41658.47
523.43	41871.62
523.64	41788.97
523.84	41954.20
524.05	42328.07
524.26	42306.04
524.47	42062.74
524.67	42458.16
524.88	42561.38
525.09	42934.11
525.30	42516.00
525.50	42476.18
525.71	42780.92
525.92	42991.86
526.13	43331.09
526.33	43085.90
526.54	42873.49
526.75	43341.24
526.95	43744.20
527.16	43042.00
527.37	43695.95
527.58	43896.00
527.78	43887.81
527.99	44208.68
528.20	44433.39
528.40	44073.27
528.61	44116.52
528.82	44619.67
529.03	44529.97
529.23	44367.52
529.44	44883.53
529.65	44784.41
529.85	44963.40
530.06	44934.07
530.27	45018.45
530.47	44610.74
530.68	45652.01
530.89	44844.70
531.09	45554.12
531.30	45459.83
531.51	45140.51
531.72	45783.16
531.92	45865.16
532.13	46050.54
532.34	45978.62
532.54	46068.24
532.75	46177.93
532.96	46136.64
533.16	46465.87
533.37	46716.46
533.58	46369.86
533.78	46774.79
533.99	46900.53
534.20	46382.40
534.40	46782.00
534.61	47001.13
534.82	47149.57
535.02	47281.13
535.23	47338.22
535.44	47654.35
535.64	47430.14
535.85	47625.60
536.06	47578.66
536.26	47618.22
536.47	47705.71
536.68	48385.56
536.88	47719.80
537.09	48389.65
537.29	47839.16
537.50	48754.52
537.71	48291.10
537.91	48525.88
538.12	48717.49
538.33	48437.16
538.53	48715.85
538.74	48877.72
538.95	49003.47
539.15	48819.81
539.36	49129.71
539.56	49489.98
539.77	49055.00
539.98	49210.07
540.18	49476.39
540.39	49207.77
540.60	49597.05
540.80	49833.47
541.01	49873.45
541.21	49885.08
541.42	50109.04
541.63	49996.57
541.83	50237.00
542.04	50291.64
542.25	50176.30
542.45	50508.89
542.66	50501.60
542.86	50831.16
543.07	49721.32
543.28	50881.70
543.48	50768.90
543.69	51015.31
543.89	50814.53
544.10	51422.61
544.31	51194.71
544.51	51010.07
544.72	51194.30
544.92	51170.47
545.13	51703.02
545.33	51671.15
545.54	51418.27
545.75	51770.36
545.95	51521.32
546.16	51598.57
546.36	52291.69
546.57	51250.58
546.78	50645.94
546.98	51357.73
547.19	50587.53
547.39	51752.99
547.60	52090.82
547.80	52639.68
548.01	52753.55
548.22	52298.73
548.42	52446.02
548.63	52740.44
548.83	52625.26
549.04	53087.04
549.24	52792.13
549.45	53052.55
549.65	53462.55
549.86	52879.95
550.07	53116.85
550.27	53501.79
550.48	53488.11
550.68	53363.76
550.89	53335.82
551.09	53675.87
551.30	53501.71
551.50	53727.97
551.71	53446.58
551.91	53564.21
552.12	53829.22
552.33	54145.43
552.53	53615.17
552.74	54300.66
552.94	54320.98
553.15	54074.57
553.35	54378.81
553.56	54023.37
553.76	54633.99
553.97	54217.43
554.17	54569.85
554.38	55293.68
554.58	54631.04
554.79	55248.22
554.99	54688.96
555.20	54792.99
555.40	55267.96
555.61	55015.16
555.81	54703.21
556.02	55581.13
556.22	55400.91
556.43	55142.87
556.63	55333.17
556.84	55211.35
557.04	55935.43
557.25	55228.23
557.45	55730.88
557.66	55704.59
557.86	55476.52
558.07	56076.91
558.27	55817.22
558.48	55863.02
558.68	56005.15
558.89	56128.02
559.09	56192.08
559.30	55963.20
559.50	56212.15
559.71	55826.24
559.91	56614.13
560.12	56374.52
560.32	56422.69
560.53	56773.05
560.73	56362.48
560.94	56927.72
561.14	56358.87
561.35	57000.21
561.55	56712.92
561.76	56890.20
561.96	56425.31
562.17	56973.18
562.37	57219.51
562.57	56911.90
562.78	56870.04
562.98	57273.66
563.19	57182.89
563.39	57456.50
563.60	57510.16
563.80	56973.84
564.01	57845.86
564.21	57530.72
564.42	57456.66
564.62	57606.25
564.82	57971.85
565.03	57481.73
565.23	57562.42
565.44	57654.66
565.64	57527.77
565.85	57924.83
566.05	57693.25
566.25	58198.68
566.46	57748.95
566.66	58111.77
566.87	58175.75
567.07	58171.65
567.28	58269.05
567.48	58668.65
567.68	57981.76
567.89	58906.22
568.09	58254.31
568.30	58406.10
568.50	58876.56
568.71	58664.88
568.91	58908.76
569.11	58488.10
569.32	58716.17
569.52	58880.41
569.73	58246.12
569.93	58949.06
570.13	58772.44
570.34	58667.10
570.54	59143.62
570.75	58971.18
570.95	59062.19
571.15	58841.34
571.36	59600.31
571.56	58929.73
571.77	59022.79
571.97	58529.88
572.17	59463.18
572.38	59251.67
572.58	59553.78
572.79	59346.20
572.99	59489.72
573.19	59412.39
573.40	59372.09
573.60	59532.65
573.81	59370.61
574.01	59764.48
574.21	59635.38
574.42	59619.07
574.62	59409.77
574.82	59932.49
575.03	59586.47
575.23	60152.94
575.43	59721.47
575.64	59653.56
575.84	60246.00
576.05	59657.25
576.25	60030.31
576.45	59806.18
576.66	60499.78
576.86	59975.17
577.06	60315.87
577.27	60200.61
577.47	60328.24
577.67	60262.87
577.88	59744.66
578.08	60525.18
578.28	60691.47
578.49	60394.27
578.69	60608.90
578.89	60306.86
579.10	60557.13
579.30	61155.38
579.50	60640.03
579.71	60280.08
579.91	60870.05
580.11	60546.56
580.32	60531.89
580.52	60558.44
580.72	61240.90
580.93	60523.46
581.13	60598.00
581.33	61133.42
581.54	60598.41
581.74	60753.07
581.94	60889.06
582.15	61242.70
582.35	60961.64
582.55	61047.49
582.76	60751.11
582.96	61427.76
583.16	61033.73
583.37	61350.18
583.57	61058.47
583.77	61555.14
583.97	60507.89
584.18	61692.68
584.38	61523.36
584.58	61157.84
584.79	61737.90
584.99	61614.04
585.19	61477.40
585.40	61408.02
585.60	61778.94
585.80	61186.59
586.00	61564.64
586.21	61381.31
586.41	61518.28
586.61	61818.43
586.82	61772.14
587.02	61703.17
587.22	62117.43
587.42	61432.18
587.63	62167.32
587.83	61478.47
588.03	61899.28
588.23	61424.89
588.44	61907.97
588.64	61529.83
588.84	61906.98
589.05	62185.83
589.25	62169.61
589.45	62056.98
589.65	61906.41
589.86	62188.86
590.06	62228.19
590.26	61918.45
590.46	62341.64
590.67	61580.95
590.87	62368.76
591.07	62511.38
591.27	61932.46
591.48	62346.48
591.68	61896.17
591.88	62891.32
592.08	62051.00
592.29	62595.76
592.49	62418.65
592.69	62674.15
592.89	62335.01
593.10	62426.18
593.30	62345.66
593.50	62931.13
593.70	61700.55
593.90	62805.06
594.11	62534.56
594.31	62615.01
594.51	62902.46
594.71	62931.21
594.92	62855.85
595.12	62672.51
595.32	62752.30
595.52	63087.60
595.72	62414.96
595.93	63125.11
596.13	62745.67
596.33	62586.83
596.53	63074.24
596.73	62921.46
596.94	62766.31
597.14	63221.70
597.34	62948.58
597.54	63373.16
597.74	62865.60
597.95	63144.04
598.15	63057.12
598.35	63320.08
598.55	63427.64
598.75	63010.35
598.96	63578.70
599.16	63098.74
599.36	63334.33
599.56	63153.87
599.76	63023.04
599.97	63477.77
600.17	63221.78
600.37	63539.71
600.57	62689.96
600.77	63749.99
600.97	63329.50
601.18	63932.01
601.38	63370.46
601.58	63749.50
601.78	63547.57
601.98	63249.30
602.18	63568.21
602.39	64040.47
602.59	63711.65
602.79	63552.07
602.99	63675.12
603.19	63755.48
603.39	63565.59
603.60	63642.43
603.80	63775.14
604.00	63663.65
604.20	63835.35
604.40	63991.24
604.60	63767.60
604.80	63724.35
605.01	64030.89
605.21	63862.87
605.41	63797.99
605.61	63606.47
605.81	64015.00
606.01	64236.01
606.21	63661.76
606.42	63961.91
606.62	63647.35
606.82	64221.27
607.02	63805.70
607.22	64030.23
607.42	64270.17
607.62	63656.52
607.82	64108.06
608.03	64066.93
608.23	63912.68
608.43	63636.37
608.63	64323.01
608.83	64042.44
609.03	63980.92
609.23	64082.83
609.43	64207.42
609.63	64061.86
609.84	63898.67
610.04	64596.78
610.24	64413.61
610.44	64400.02
610.64	64092.98
610.84	64393.38
611.04	64851.39
611.24	64534.61
611.44	63882.13
611.64	64453.34
611.85	64419.35
612.05	64416.56
612.25	64516.26
612.45	64106.91
612.65	64489.63
612.85	64555.74
613.05	64193.50
613.25	64682.23
613.45	64374.38
613.65	64484.31
613.85	64104.37
614.05	64541.49
614.25	64735.96
614.46	64485.87
614.66	64327.35
614.86	64091.26
615.06	64251.82
615.26	64694.60
615.46	63928.33
615.66	64608.42
615.86	64618.17
616.06	64163.35
616.26	64254.69
616.46	64803.55
616.66	64276.07
616.86	64728.92
617.06	64302.29
617.26	64910.45
617.46	64531.58
617.66	64385.60
617.86	64222.66
618.07	64560.82
618.27	64332.76
618.47	64485.46
618.67	64578.19
618.87	64684.36
619.07	64405.67
619.27	64240.85
619.47	64283.04
619.67	64637.42
619.87	64165.73
620.07	64525.02
620.27	64446.79
620.47	64191.45
620.67	64479.56
620.87	64472.76
621.07	64727.94
621.27	64397.07
621.47	64068.82
621.67	64564.43
621.87	64133.29
622.07	64681.16
622.27	64611.78
622.47	64194.07
622.67	64371.84
622.87	63857.14
623.07	64458.92
623.27	64822.06
623.47	63859.27
623.67	64358.16
623.87	64786.43
624.07	64679.69
624.27	64273.70
624.47	64447.77
624.67	64239.13
624.87	64502.33
625.07	64087.58
625.27	64668.22
625.47	64290.08
625.67	64202.10
625.87	64514.21
626.07	64248.06
626.27	64480.21
626.47	64249.12
626.67	64174.66
626.87	63961.50
627.07	64381.58
627.27	64294.09
627.47	64414.76
627.67	64179.74
627.87	64233.15
628.07	64617.18
628.27	64269.76
628.47	64006.15
628.67	64555.50
628.86	64620.79
629.06	64253.14
629.26	64121.49
629.46	64512.57
629.66	64348.65
629.86	63822.65
630.06	64452.03
630.26	64207.10
630.46	64647.74
630.66	64032.86
630.86	64154.67
631.06	64141.40
631.26	63831.58
631.46	64429.01
631.66	64213.32
631.86	63774.16
632.06	64365.04
632.26	64037.36
632.45	64150.98
632.65	64213.40
632.85	64482.59
633.05	64289.43
633.25	64470.96
633.45	63978.95
633.65	64137.47
633.85	64716.22
634.05	63730.99
634.25	64083.56
634.45	64081.35
634.65	64462.68
634.84	63981.66
635.04	64171.46
635.24	63724.60
635.44	64186.37
635.64	63696.66
635.84	64106.26
636.04	63975.43
636.24	63939.96
636.44	64119.36
636.64	63494.08
636.84	64377.16
637.03	63685.68
637.23	64008.61
637.43	64107.16
637.63	63757.36
637.83	64097.98
638.03	64023.84
638.23	63589.10
638.43	64051.04
638.62	64291.47
638.82	63287.31
639.02	64139.27
639.22	63713.62
639.42	64032.28
639.62	63564.85
639.82	63714.52
640.02	63796.85
640.21	63929.15
640.41	63350.47
640.61	63885.16
640.81	63848.95
641.01	63762.44
641.21	63590.82
641.41	64152.38
641.61	63578.04
641.80	63532.41
642.00	63905.88
642.20	63938.16
642.40	63208.92
642.60	63725.74
642.80	63876.88
642.99	63446.81
643.19	63948.23
643.39	63324.09
643.59	63767.19
643.79	63616.95
643.99	63887.12
644.19	63599.34
644.38	63175.58
644.58	63620.80
644.78	63350.72
644.98	63286.66
645.18	63438.94
645.38	63805.61
645.57	63309.35
645.77	63475.07
645.97	63301.98
646.17	63694.20
646.37	63512.18
646.56	63186.39
646.76	63324.26
646.96	63308.04
647.16	62984.71
647.36	63205.23
647.55	63085.47
647.75	63137.40
647.95	62712.00
648.15	63159.19
648.35	63089.48
648.55	63266.10
648.74	63126.26
648.94	63001.83
649.14	63368.17
649.34	62761.89
649.54	62731.58
649.73	62824.55
649.93	62552.58
650.13	62836.68
650.33	62639.50
650.52	63103.16
650.72	63296.57
650.92	62888.61
651.12	62671.94
651.32	62968.81
651.51	63037.79
651.71	63088.01
651.91	62710.20
652.11	62539.07
652.30	62241.78
652.50	62868.22
652.70	62792.93
652.90	62235.97
653.10	62701.43
653.29	62443.88
653.49	62858.88
653.69	62264.15
653.89	62546.69
654.08	62409.96
654.28	62865.51
654.48	62631.06
654.68	62920.24
654.87	62595.84
655.07	62313.79
655.27	62909.26
655.47	62487.13
655.66	62445.76
655.86	62278.81
656.06	62695.12
656.26	61786.15
656.45	62233.67
656.65	62151.43
656.85	62038.63
657.04	61689.98
657.24	61671.14
657.44	61721.03
657.64	62437.41
657.83	61372.05
658.03	62099.82
658.23	61964.74
658.43	61780.01
658.62	61913.95
658.82	61637.47
659.02	61595.77
659.21	61753.14
659.41	61362.47
659.61	61958.76
659.81	61460.93
660.00	61184.05
660.20	61501.48
660.40	61203.71
660.59	61506.56
660.79	61013.99
660.99	61534.66
661.19	61584.39
661.38	61349.69
661.58	60740.54
661.78	61129.82
661.97	60809.93
662.17	61572.18
662.37	60712.77
662.56	60737.84
662.76	60805.18
662.96	61039.54
663.15	61197.48
663.35	60976.14
663.55	60782.16
663.74	60512.32
663.94	61069.20
664.14	60488.07
664.33	60890.04
664.53	60526.49
664.73	61059.29
664.93	60271.80
665.12	60875.22
665.32	60609.06
665.52	60704.58
665.71	60424.91
665.91	60549.42
666.10	60292.94
666.30	60690.41
666.50	60137.54
666.69	60106.82
666.89	60458.00
667.09	60704.50
667.28	60174.48
667.48	60031.12
667.68	60102.39
667.87	60091.34
668.07	59819.20
668.27	60333.98
668.46	60175.55
668.66	59964.77
668.86	60543.28
669.05	59986.40
669.25	60365.19
669.44	59975.58
669.64	59963.54
669.84	60034.89
670.03	60386.49
670.23	59772.02
670.43	59636.11
670.62	59662.00
670.82	59660.44
671.01	59971.73
671.21	59539.12
671.41	59644.47
671.60	59903.74
671.80	60111.73
672.00	59719.75
672.19	60012.78
672.39	59840.42
672.58	59773.57
672.78	59539.86
672.98	59987.54
673.17	59642.83
673.37	58883.12
673.56	59273.46
673.76	59426.65
673.96	59559.27
674.15	59252.32
674.35	59331.29
674.54	59269.20
674.74	59221.69
674.94	59170.90
675.13	59325.07
675.33	58690.28
675.52	59501.36
675.72	59286.32
675.91	59200.55
676.11	59618.83
676.31	59019.76
676.50	59280.09
676.70	59092.25
676.89	59218.98
677.09	59378.07
677.28	59227.26
677.48	58575.67
677.68	59220.46
677.87	58727.63
678.07	58638.18
678.26	58648.91
678.46	58788.83
678.65	58540.45
678.85	58861.65
679.04	58201.14
679.24	58429.37
679.44	58255.86
679.63	58578.05
679.83	58304.52
680.02	58424.04
680.22	58050.98
680.41	58294.69
680.61	58062.70
680.80	57934.33
681.00	58068.27
681.19	58130.36
681.39	57905.42
681.59	57763.86
681.78	57671.21
681.98	58087.77
682.17	57468.38
682.37	57952.85
682.56	57448.55
682.76	58046.56
682.95	57601.91
683.15	57638.77
683.34	57424.22
683.54	57440.77
683.73	57667.93
683.93	57141.03
684.12	57489.27
684.32	57673.01
684.51	56974.33
684.71	57439.46
684.90	57207.06
685.10	57170.44
685.29	57014.63
685.49	57254.49
685.68	57131.04
685.88	56948.28
686.07	56644.28
686.27	57099.50
686.46	56877.25
686.66	56652.22
686.85	57078.94
687.05	56814.59
687.24	56680.07
687.44	56953.03
687.63	56743.56
687.83	56102.14
688.02	56680.40
688.22	56747.00
688.41	56433.66
688.61	56400.73
688.80	56692.61
689.00	56233.29
689.19	55914.30
689.39	56606.02
689.58	56503.79
689.77	56389.34
689.97	56526.64
690.16	56269.83
690.36	55732.03
690.55	55476.61
690.75	56313.98
690.94	55691.89
691.14	55891.44
691.33	55301.30
691.53	55824.84
691.72	55473.82
691.91	55675.34
692.11	55604.89
692.30	55775.20
692.50	55808.62
692.69	55388.95
692.89	55480.95
693.08	55253.38
693.28	55092.65
693.47	55285.16
693.66	55142.54
693.86	55022.20
694.05	54866.97
694.25	55042.93
694.44	55147.37
694.64	55121.32
694.83	55089.38
695.02	54965.11
695.22	55103.47
695.41	54680.77
695.61	54483.01
695.80	54513.24
695.99	54408.96
696.19	54492.68
696.38	54474.41
696.58	54001.25
696.77	54680.19
696.96	54527.58
697.16	54248.07
697.35	54274.12
697.55	54240.62
697.74	53967.74
697.93	54544.37
698.13	53917.94
698.32	54274.37
698.52	53984.78
698.71	53411.19
698.90	54171.15
699.10	53507.77
699.29	53748.94
699.49	54220.71
699.68	53703.80
699.87	53713.88
700.07	54161.48
700.26	53802.43
700.45	53721.82
700.65	53303.55
700.84	53779.41
701.04	53148.64
701.23	53331.97
701.42	52971.20
701.62	52933.52
701.81	52997.58
702.00	52888.22
702.20	52573.90
702.39	52825.06
702.58	53075.24
702.78	52765.26
702.97	52808.10
703.17	52824.81
703.36	52938.76
703.55	52560.30
703.75	52439.55
703.94	52619.44
704.13	52298.08
704.33	52147.76
704.52	52572.18
704.71	52491.98
704.91	52431.69
705.10	52300.62
705.29	52466.91
705.49	52438.73
705.68	52503.37
705.87	52457.16
706.07	51911.42
706.26	52362.87
706.45	51663.37
706.65	51440.06
706.84	51969.34
707.03	52132.76
707.23	51422.78
707.42	51276.63
707.61	51684.34
707.80	51263.85
708.00	51259.27
708.19	51108.78
708.38	51546.80
708.58	50783.89
708.77	51609.06
708.96	50951.91
709.16	50961.16
709.35	51756.18
709.54	51218.55
709.74	51053.40
709.93	50699.10
710.12	51440.96
710.31	51596.44
710.51	50922.74
710.70	50863.84
710.89	50933.31
711.09	50371.84
711.28	50307.45
711.47	50664.54
711.66	50484.07
711.86	50398.05
712.05	50399.53
712.24	50606.78
712.43	50135.42
712.63	49618.35
712.82	50236.43
713.01	49862.39
713.21	49580.18
713.40	49627.53
713.59	50022.37
713.78	49401.68
713.98	49891.96
714.17	49582.14
714.36	49564.20
714.55	49024.36
714.75	49277.90
714.94	49210.31
715.13	49572.56
715.32	48871.99
715.52	49154.85
715.71	48941.13
715.90	48968.24
716.09	48804.57
716.29	49205.73
716.48	48954.65
716.67	48461.17
716.86	48942.19
717.06	48865.93
717.25	48967.01
717.44	48919.91
717.63	48954.40
717.82	48287.42
718.02	48581.67
718.21	48676.78
718.40	48708.07
718.59	48366.80
718.79	48078.20
718.98	48088.44
719.17	48257.19
719.36	48288.32
719.55	47995.62
719.75	47925.83
719.94	47908.54
720.13	48246.13
720.32	47990.79
720.51	47582.01
720.71	47526.47
720.90	46986.47
721.09	47409.90
721.28	47189.38
721.47	47594.06
721.67	47317.25
721.86	47351.82
722.05	47367.88
722.24	46916.92
722.43	47433.99
722.63	47055.03
722.82	47164.47
723.01	47226.57
723.20	46811.49
723.39	46816.89
723.58	47041.43
723.78	46408.04
723.97	46969.84
724.16	46460.87
724.35	46586.21
724.54	46312.19
724.73	46550.49
724.93	46192.92
725.12	46429.75
725.31	45616.37
725.50	46111.65
725.69	46230.44
725.88	45890.80
726.08	45506.11
726.27	46103.63
726.46	45261.34
726.65	46159.50
726.84	45294.27
727.03	45659.05
727.23	45931.19
727.42	45492.84
727.61	45397.49
727.80	45115.60
727.99	45324.42
728.18	45332.44
728.37	45097.99
728.56	44748.85
728.76	44587.39
728.95	44838.72
729.14	44728.21
729.33	44612.87
729.52	44657.92
729.71	44687.33
729.90	44668.25
730.09	44299.20
730.29	44671.93
730.48	44088.02
730.67	44562.98
730.86	44128.48
731.05	44552.17
731.24	44196.23
731.43	44308.13
731.62	44043.29
731.81	43974.39
732.01	44520.06
732.20	43977.92
732.39	44216.79
732.58	44115.79
732.77	43285.70
732.96	43885.43
733.15	43807.77
733.34	43531.13
733.53	43575.45
733.72	43729.13
733.92	43582.66
734.11	43401.37
734.30	43585.12
734.49	43785.24
734.68	43535.97
734.87	43422.18
735.06	43329.45
735.25	43482.14
735.44	43040.52
735.63	43170.94
735.82	43123.18
736.01	42875.29
736.20	42882.58
736.40	43119.74
736.59	42895.52
736.78	43135.38
736.97	42527.30
737.16	42636.83
737.35	42712.93
737.54	42799.60
737.73	42435.22
737.92	42657.06
738.11	42822.29
738.30	42503.13
738.49	42346.42
738.68	42237.39
738.87	42376.32
739.06	42115.33
739.25	42249.60
739.44	42115.33
739.63	41940.35
739.82	41637.42
740.01	42000.40
740.20	41632.83
740.39	41675.18
740.59	41666.33
740.78	41787.49
740.97	41527.73
741.16	41428.93
741.35	41644.38
741.54	41530.43
741.73	41558.86
741.92	41348.41
742.11	41306.38
742.30	41485.87
742.49	40998.29
742.68	41289.18
742.87	41133.53
743.06	40651.20
743.25	40975.84
743.44	40655.21
743.63	40939.88
743.82	40542.57
744.01	40571.49
744.20	40347.69
744.39	40717.22
744.58	40528.89
744.77	40277.16
744.96	39979.14
745.15	40372.51
745.34	40038.94
745.53	40189.58
745.72	39858.31
745.91	39981.10
746.10	39754.43
746.29	40203.35
746.48	39968.57
746.67	39881.49
746.86	39794.33
747.04	39774.91
747.23	39565.20
747.42	39929.57
747.61	39516.05
747.80	40077.11
747.99	39322.72
748.18	39765.65
748.37	39538.49
748.56	39155.03
748.75	39349.34
748.94	39274.39
749.13	39201.89
749.32	38940.82
749.51	39031.66
749.70	39121.86
749.89	38841.37
750.08	38927.13
750.27	38440.37
750.46	38736.76
750.65	39015.69
750.84	38481.25
751.02	38642.96
751.21	38538.18
751.40	38573.49
751.59	38701.94
751.78	38436.61
751.97	38577.42
752.16	38219.68
752.35	38569.56
752.54	38082.14
752.73	38441.60
752.92	37960.49
753.11	37989.49
753.30	38080.75
753.49	38199.29
753.67	37970.73
753.86	37753.98
754.05	38021.44
754.24	37694.75
754.43	37664.68
754.62	37727.60
754.81	37361.75
755.00	37596.53
755.19	37578.67
755.38	37055.70
755.56	37436.05
755.75	37638.72
755.94	37100.84
756.13	37163.92
756.32	37374.53
756.51	37098.13
756.70	37189.64
756.89	37129.10
757.08	37004.75
757.26	37056.85
757.45	37007.37
757.64	36726.06
757.83	37125.82
758.02	36713.12
758.21	36675.93
758.40	36819.45
758.59	36774.15
758.77	36504.88
758.96	36627.10
759.15	36703.04
759.34	36376.51
759.53	36515.61
759.72	36402.48
759.91	36038.93
760.09	36303.69
760.28	36345.38
760.47	35860.67
760.66	36313.03
760.85	35661.69
761.04	36145.67
761.23	36022.30
761.41	35999.93
761.60	36132.07
761.79	35937.59
761.98	35587.47
762.17	36039.01
762.36	35623.19
762.54	35974.78
762.73	35811.52
762.92	35561.09
763.11	35905.15
763.30	35927.27
763.49	35762.37
763.67	35604.59
763.86	35638.34
764.05	35854.44
764.24	35567.24
764.43	35853.95
764.61	35243.74
764.80	35249.80
764.99	35603.04
765.18	35142.24
765.37	35271.51
765.55	35305.75
765.74	35018.95
765.93	34845.45
766.12	35169.11
766.31	35030.59
766.49	34924.75
766.68	34949.00
766.87	34821.12
767.06	34648.68
767.25	34790.57
767.43	34753.78
767.62	34584.21
767.81	34770.50
768.00	34539.81
768.19	34445.36
768.37	34584.29
768.56	34562.50
768.75	34643.69
768.94	34639.10
769.12	34243.10
769.31	34257.68
769.50	34218.85
769.69	34429.39
769.88	33878.24
770.06	34507.37
770.25	33975.47
770.44	33945.82
770.63	34267.76
770.81	34037.81
771.00	33894.95
771.19	34059.52
771.38	33898.96
771.56	34080.82
771.75	33415.07
771.94	33844.81
772.13	33814.91
772.31	33561.37
772.50	33943.12
772.69	33723.74
772.88	34065.83
773.06	33545.32
773.25	33669.34
773.44	33615.03
773.62	33529.67
773.81	33570.96
774.00	33437.60
774.19	33607.17
774.37	33365.26
774.56	33654.60
774.75	33155.39
774.94	33501.90
775.12	33163.41
775.31	33272.94
775.50	33249.59
775.68	33102.96
775.87	33081.33
776.06	32827.38
776.25	33166.44
776.43	32863.84
776.62	33125.32
776.81	32690.09
776.99	32900.70
777.18	32812.88
777.37	32523.87
777.55	32712.86
777.74	32762.83
777.93	32655.19
778.12	32655.11
778.30	32474.72
778.49	32520.02
778.68	32662.73
778.86	32499.54
779.05	32633.15
779.24	32617.26
779.42	32452.52
779.61	32421.31
779.80	32497.33
779.98	32570.81
780.17	32636.27
780.36	32262.14
780.54	32603.25
780.73	31894.49
780.92	32378.96
781.10	32142.62
781.29	32043.83
781.48	31868.28
781.66	32068.98
781.85	32063.90
782.04	31894.82
782.22	31981.16
782.41	31764.24
782.60	31975.18
782.78	31952.33
782.97	32085.36
783.16	31520.29
783.34	31650.05
783.53	31726.64
783.71	31503.99
783.90	31510.54
784.09	31499.56
784.27	31410.11
784.46	31418.87
784.65	31447.79
784.83	31313.03
785.02	31257.74
785.20	31630.88
785.39	30988.31
785.58	31378.65
785.76	31289.93
785.95	31251.43
786.14	31419.12
786.32	31310.82
786.51	31200.72
786.69	31485.06
786.88	31394.38
787.07	31300.99
787.25	31377.09
787.44	31355.22
787.62	31258.64
787.81	31455.57
788.00	31300.74
788.18	31031.31
788.37	31078.17
788.55	31550.27
788.74	31131.91
788.93	31287.97
789.11	31475.56
789.30	31277.97
789.48	31099.80
789.67	31398.31
789.86	31253.97
790.04	31285.10
790.23	31264.78
790.41	31142.81
790.60	31351.04
790.78	31335.64
790.97	30982.33
791.16	31151.90
791.34	31534.30
791.53	30995.93
791.71	31447.38
791.90	31091.11
792.08	31139.04
792.27	31203.26
792.46	31261.92
792.64	31303.28
792.83	31173.52
793.01	31241.11
793.20	31107.01
793.38	31095.29
793.57	31096.28
793.75	31102.67
793.94	31155.42
794.12	31431.57
794.31	31223.99
794.50	31316.80
794.68	31484.24
794.87	31353.83
795.05	31666.92
795.24	31408.06
795.42	31390.20
795.61	31779.56
795.79	31752.12
795.98	31409.29
796.16	31649.55
796.35	31671.75
796.53	31354.65
796.72	31593.85
796.90	31505.87
797.09	31444.68
797.27	31374.23
797.46	31305.17
797.64	31477.61
797.83	31385.28
798.01	31530.36
798.20	31662.50
798.38	31433.62
798.57	31632.93
798.75	31504.23
798.94	31073.17
799.12	31912.92
799.31	31505.62
799.49	31409.61
799.68	31284.85
799.86	31292.47
800.05	31306.32
800.23	31342.52
800.42	31226.03
800.60	31581.56
800.79	31055.23
800.97	31247.17
801.16	31494.40
801.34	31178.69
801.53	31118.64
801.71	31326.22
801.90	31107.58
802.08	31431.00
802.27	31262.41
802.45	31112.41
802.64	31299.19
802.82	31372.10
803.00	30985.28
803.19	31185.16
803.37	31388.89
803.56	31108.07
803.74	31026.48
803.93	31141.41
804.11	30986.67
804.30	30782.61
804.48	31044.99
804.67	31036.07
804.85	30839.87
805.03	31086.36
805.22	30725.92
805.40	30610.83
805.59	30874.93
805.77	30863.46
805.96	30648.43
806.14	30721.91
806.32	30735.67
806.51	31120.03
806.69	30853.80
806.88	30783.67
807.06	30727.72
807.25	30712.98
807.43	30692.25
807.61	30773.84
807.80	30589.53
807.98	30779.41
808.17	30502.61
808.35	30463.21
808.53	30799.07
808.72	30463.86
808.90	30544.63
809.09	30524.65
809.27	30582.07
809.45	30233.59
809.64	30446.82
809.82	30223.84
810.01	30279.55
810.19	30295.52
810.37	30138.73
810.56	30083.43
810.74	30291.42
810.93	29916.73
811.11	29992.67
811.29	29879.62
811.48	30007.00
811.66	29969.73
811.84	29898.30
812.03	29852.67
812.21	29871.59
812.40	30070.08
812.58	30069.75
812.76	29760.84
812.95	30119.39
813.13	29621.82
813.31	29801.96
813.50	29809.17
813.68	29669.82
813.86	29853.24
814.05	29842.59
814.23	29436.44
814.42	29675.31
814.60	29507.95
814.78	29583.65
814.97	29586.76
815.15	29480.92
815.33	29586.84
815.52	29446.19
815.70	29470.93
815.88	29513.52
816.07	29183.39
816.25	29266.62
816.43	29308.32
816.62	28973.02
816.80	29106.88
816.98	28986.95
817.17	29045.28
817.35	29069.85
817.53	29041.26
817.72	29156.69
817.90	28817.71
818.08	28866.37
818.26	28961.47
818.45	28781.66
818.63	28914.29
818.81	28891.84
819.00	28515.83
819.18	28821.31
819.36	28847.61
819.55	28792.64
819.73	28648.95
819.91	28794.36
820.09	28680.08
820.28	28890.12
820.46	28600.54
820.64	28973.84
820.83	28523.45
821.01	28550.08
821.19	28422.86
821.38	28573.59
821.56	28423.92
821.74	28563.59
821.92	28248.70
822.11	28568.75
822.29	28137.37
822.47	28219.53
822.65	28341.35
822.84	28376.65
823.02	28054.47
823.20	28371.99
823.39	27940.85
823.57	27972.55
823.75	27997.37
823.93	27889.07
824.12	27948.71
824.30	27819.94
824.48	27733.92
824.66	28028.83
824.85	27461.13
825.03	27806.99
825.21	27886.62
825.39	27675.10
825.58	27806.50
825.76	27693.45
825.94	27731.79
826.12	27551.08
826.31	27419.76
826.49	27619.40
826.67	27524.04
826.85	27351.28
827.03	27466.13
827.22	27607.11
827.40	27398.38
827.58	27352.02
827.76	27473.34
827.95	27281.07
828.13	27262.15
828.31	27272.06
828.49	27362.17
828.67	27163.77
828.86	27041.05
829.04	27152.46
829.22	27010.91
829.40	26827.57
829.58	26855.75
829.77	26850.02
829.95	26840.19
830.13	26805.45
830.31	26757.53
830.49	26858.70
830.68	26916.54
830.86	26723.37
831.04	26773.59
831.22	26767.61
831.40	26684.13
831.59	26818.64
831.77	26564.37
831.95	26663.41
832.13	26380.05
832.31	26571.90
832.50	26519.39
832.68	26267.33
832.86	26266.92
833.04	26462.87
833.22	26053.93
833.40	26479.09
833.59	26104.56
833.77	26374.56
833.95	25711.02
834.13	26515.62
834.31	26110.05
834.49	26126.51
834.67	26149.94
834.86	26213.10
835.04	26056.96
835.22	26170.91
835.40	26072.69
835.58	25990.85
835.76	25954.40
835.95	26079.08
836.13	25868.63
836.31	25787.37
836.49	25999.86
836.67	26017.23
836.85	25831.52
837.03	25729.20
837.21	25822.02
837.40	25646.47
837.58	25368.76
837.76	25599.94
837.94	25547.51
838.12	25763.45
838.30	25522.52
838.48	25538.50
838.66	25444.62
838.85	25347.14
839.03	25385.88
839.21	25295.69
839.39	25233.27
839.57	25353.28
839.75	25153.56
839.93	25131.85
840.11	25208.69
840.29	25163.88
840.47	25167.00
840.66	25081.39
840.84	25004.31
841.02	24888.88
841.20	24983.17
841.38	24903.71
841.56	24920.67
841.74	25139.31
841.92	24868.73
842.10	24823.35
842.28	25045.43
842.46	24825.15
842.65	24795.99
842.83	24963.02
843.01	25082.13
843.19	24745.20
843.37	24920.50
843.55	24704.57
843.73	24856.20
843.91	24829.25
844.09	24641.90
844.27	24697.52
844.45	24490.35
844.63	24371.16
844.81	24437.18
844.99	24451.52
845.17	24286.21
845.35	24542.53
845.54	24255.16
845.72	24259.75
845.90	24236.24
846.08	24255.16
846.26	23971.23
846.44	24278.59
846.62	24031.85
846.80	24059.54
846.98	24134.66
847.16	24066.91
847.34	24155.63
847.52	24028.49
847.70	23965.90
847.88	24071.17
848.06	23852.69
848.24	24027.34
848.42	24014.40
848.60	23847.45
848.78	24004.32
848.96	23887.34
849.14	23790.76
849.32	23949.44
849.50	23722.61
849.68	23905.94
849.86	23764.71
850.04	23604.07
850.22	23542.63
850.40	23385.43
850.58	23534.77
850.76	23890.78
850.94	23179.16
851.12	23581.95
851.30	23290.57
851.48	23493.15
851.66	23270.58
851.84	23252.06
852.02	23241.00
852.20	23328.49
852.38	23062.18
852.56	23140.74
852.74	23124.27
852.92	23051.36
853.10	22846.16
853.28	23070.61
853.46	22582.46
853.64	22892.03
853.82	22761.37
854.00	22770.22
854.18	22656.51
854.36	22576.64
854.54	22708.21
854.72	22569.11
854.90	22468.18
855.07	22585.98
855.25	22543.96
855.43	22611.13
855.61	22606.22
855.79	22494.23
855.97	22536.18
856.15	22528.56
856.33	22444.10
856.51	22611.21
856.69	22334.90
856.87	22511.44
857.05	22315.98
857.23	22405.19
857.41	22173.28
857.59	22211.12
857.77	22290.34
857.94	22185.56
858.12	22319.99
858.30	22128.30
858.48	22097.99
858.66	21915.81
858.84	22132.81
859.02	21922.77
859.20	21768.52
859.38	22079.15
859.56	21885.17
859.74	21808.98
859.92	21891.23
860.09	21684.22
860.27	21847.40
860.45	21593.29
860.63	21647.85
860.81	21741.07
860.99	21682.58
861.17	21428.31
861.35	21106.04
861.53	20971.36
861.70	20945.64
861.88	21330.99
862.06	21317.14
862.24	20981.19
862.42	20951.79
862.60	21285.60
862.78	21296.83
862.96	21394.47
863.14	21152.08
863.31	21274.05
863.49	21166.58
863.67	21150.11
863.85	21157.81
864.03	21180.50
864.21	21184.76
864.39	21177.23
864.56	20871.26
864.74	21041.16
864.92	20886.33
865.10	20795.07
865.28	20897.80
865.46	21085.56
865.64	20554.07
865.81	20805.89
865.99	20521.38
866.17	20823.91
866.35	20643.12
866.53	20710.62
866.71	20591.67
866.88	20639.59
867.06	20417.76
867.24	20550.96
867.42	20373.68
867.60	20435.45
867.78	20291.85
867.95	20510.49
868.13	20207.80
868.31	20367.38
868.49	20260.88
868.67	20162.25
868.84	20156.19
869.02	20242.78
869.20	19807.95
869.38	20092.05
869.56	19926.57
869.73	19867.75
869.91	19918.13
870.09	19839.90
870.27	19778.71
870.45	19882.34
870.62	19608.65
870.80	19847.68
870.98	19766.42
871.16	19779.04
871.34	19726.53
871.51	19768.47
871.69	19550.81
871.87	19627.57
872.05	19579.48
872.23	19565.80
872.40	19426.46
872.58	19484.21
872.76	19288.92
872.94	19309.31
873.11	19347.00
873.29	19179.23
873.47	19309.07
873.65	19179.96
873.83	19192.99
874.00	19160.80
874.18	19262.46
874.36	19189.71
874.54	19219.04
874.71	19063.80
874.89	18903.65
875.07	18984.67
875.25	18939.86
875.42	18959.69
875.60	18956.98
875.78	19096.74
875.96	18890.87
876.13	19035.71
876.31	18839.26
876.49	18831.89
876.66	18671.41
876.84	18902.75
877.02	18695.58
877.20	18728.18
877.37	18739.49
877.55	18660.85
877.73	18615.87
877.91	18506.76
878.08	18719.99
878.26	18656.83
878.44	18631.19
878.61	18633.65
878.79	18544.60
878.97	18522.89
879.15	18654.62
879.32	18566.56
879.50	18527.07
879.68	18608.25
879.85	18427.46
880.03	18547.31
880.21	18402.15
880.38	18511.67
880.56	18354.63
880.74	18575.49
880.92	18329.65
881.09	18442.45
881.27	18383.30
881.45	18376.34
881.62	18343.66
881.80	18271.24
881.98	18313.43
882.15	18429.43
882.33	18220.61
882.51	18250.02
882.68	18097.00
882.86	18325.39
883.04	18144.35
883.21	18120.43
883.39	18293.36
883.57	18135.01
883.74	18147.30
883.92	18195.55
884.10	18218.89
884.27	18107.98
884.45	18023.93
884.63	18251.99
884.80	18178.10
884.98	18146.64
885.16	18143.86
885.33	18205.79
885.51	18152.70
885.69	18129.60
885.86	18091.59
886.04	18193.58
886.21	17942.50
886.39	18171.87
886.57	17849.44
886.74	18170.32
886.92	18155.82
887.10	18167.45
887.27	18105.93
887.45	18205.30
887.62	18132.39
887.80	18186.95
887.98	18296.55
888.15	18145.66
888.33	18079.71
888.51	18251.83
888.68	18085.04
888.86	18133.04
889.03	18036.38
889.21	18148.61
889.39	18123.54
889.56	18132.06
889.74	18157.62
889.91	18158.19
890.09	18123.87
890.27	18183.67
890.44	18142.63
890.62	18188.83
890.79	18218.57
890.97	18185.47
891.14	18110.43
891.32	18168.76
891.50	18061.28
891.67	18200.79
891.85	18069.31
892.02	18095.03
892.20	18236.01
892.38	18059.64
892.55	18099.46
892.73	18124.93
892.90	18006.40
893.08	18087.33
893.25	17998.20
893.43	18214.31
893.60	17973.47
893.78	18005.17
893.96	17947.25
894.13	17988.21
894.31	18101.91
894.48	17941.27
894.66	18035.23
894.83	17981.58
895.01	18005.17
895.18	18034.90
895.36	17968.71
895.53	18089.54
895.71	18007.22
895.89	18011.15
896.06	17872.54
896.24	17979.53
896.41	17919.56
896.59	18009.18
896.76	17760.15
896.94	17932.83
897.11	17933.73
897.29	17960.85
897.46	17803.73
897.64	17844.77
897.81	17854.19
897.99	17650.71
898.16	17928.16
898.34	17793.00
898.51	17812.58
898.69	17735.00
898.86	17776.20
899.04	17797.67
899.21	17690.76
899.39	17774.89
899.56	17666.60
899.74	17904.49
899.91	17646.86
900.09	17614.82
900.26	17588.94
900.44	17460.65
900.61	17509.64
900.79	17637.76
900.96	17538.39
901.14	17517.83
901.31	17473.92
901.49	17444.60
901.66	17518.82
901.84	17497.84
902.01	17354.16
902.19	17395.36
902.36	17283.05
902.54	17335.48
902.71	17277.57
902.88	17365.46
903.06	17079.24
903.23	17429.69
903.41	17271.91
903.58	17194.83
903.76	17090.46
903.93	17242.26
904.11	17287.97
904.28	17148.79
904.45	17170.17
904.63	17078.09
904.80	16926.30
904.98	17053.19
905.15	16874.12
905.33	17010.51
905.50	16877.23
905.68	16888.70
905.85	16812.84
906.02	16774.09
906.20	16878.54
906.37	16660.80
906.55	16608.21
906.72	16750.75
906.90	16550.54
907.07	16438.55
907.24	16567.41
907.42	16386.13
907.59	16390.22
907.77	16331.16
907.94	16256.69
908.11	16295.11
908.29	16242.85
908.46	16211.72
908.64	16078.52
908.81	16089.50
908.98	15981.53
909.16	16070.82
909.33	15926.15
909.51	15862.09
909.68	15827.11
909.85	15802.21
910.03	15828.67
910.20	15713.00
910.37	15689.00
910.55	15617.81
910.72	15633.05
910.90	15502.88
911.07	15550.14
911.24	15414.90
911.42	15547.69
911.59	15340.11
911.76	15432.84
911.94	15329.05
912.11	15294.07
912.29	15277.76
912.46	15140.88
912.63	15199.70
912.81	15060.93
912.98	15166.11
913.15	15039.14
913.33	15090.58
913.50	15040.36
913.67	14953.86
913.85	14941.49
914.02	14954.02
914.19	14900.37
914.37	14864.98
914.54	14906.92
914.71	14818.61
914.89	14819.76
915.06	14787.73
915.23	14682.38
915.41	14610.21
915.58	14599.81
915.75	14562.29
915.93	14537.96
916.10	14472.01
916.27	14422.53
916.45	14391.81
916.62	14306.37
916.79	14367.40
916.97	14261.73
917.14	14262.55
917.31	14218.23
917.49	14197.75
917.66	14190.13
917.83	14140.32
918.00	14064.38
918.18	14005.48
918.35	13926.76
918.52	14002.21
918.70	13840.99
918.87	13809.13
919.04	13841.73
919.21	13755.63
919.39	13667.32
919.56	13705.33
919.73	13586.06
919.91	13652.42
920.08	13579.67
920.25	13456.14
920.42	13610.64
920.60	13394.94
920.77	13340.80
920.94	13404.12
921.11	13220.79
921.29	13324.00
921.46	13138.62
921.63	13263.55
921.81	13117.65
921.98	13120.11
922.15	13082.01
922.32	13111.18
922.50	12997.07
922.67	13001.49
922.84	12891.31
923.01	12868.94
923.19	12834.95
923.36	12855.10
923.53	12645.80
923.70	12751.47
923.87	12682.17
924.05	12692.49
924.22	12586.49
924.39	12632.44
924.56	12543.40
924.74	12582.80
924.91	12533.40
925.08	12457.30
925.25	12457.47
925.43	12396.93
925.60	12291.99
925.77	12422.16
925.94	12317.96
926.11	12332.62
926.29	12248.33
926.46	12249.39
926.63	12251.77
926.80	12188.36
926.97	12106.53
927.15	12133.97
927.32	12019.45
927.49	11994.13
927.66	12010.68
927.83	11998.64
928.01	11870.85
928.18	11863.88
928.35	11735.19
928.52	11816.53
928.69	11648.76
928.87	11661.54
929.04	11585.93
929.21	11657.04
929.38	11514.17
929.55	11579.62
929.72	11467.48
929.90	11478.62
930.07	11487.96
930.24	11425.78
930.41	11393.18
930.58	11338.37
930.75	11351.32
930.93	11243.18
931.10	11264.16
931.27	11173.88
931.44	11188.54
931.61	11131.61
931.78	11137.10
931.95	11116.70
932.13	11018.40
932.30	11112.03
932.47	10936.15
932.64	11005.37
932.81	10919.03
932.98	10880.20
933.15	10912.64
933.33	10828.10
933.50	10901.26
933.67	10791.98
933.84	10820.40
934.01	10815.98
934.18	10794.02
934.35	10741.51
934.52	10769.45
934.70	10756.67
934.87	10713.83
935.04	10677.29
935.21	10658.20
935.38	10611.26
935.55	10534.34
935.72	10603.64
935.89	10465.28
936.06	10482.49
936.24	10403.03
936.41	10493.55
936.58	10358.79
936.75	10372.63
936.92	10350.27
937.09	10349.45
937.26	10265.48
937.43	10285.80
937.60	10281.13
937.77	10235.67
937.94	10230.42
938.12	10230.91
938.29	10125.81
938.46	10155.80
938.63	10008.67
938.80	10100.17
938.97	9959.35
939.14	9978.20
939.31	9966.64
939.48	9989.01
939.65	9873.34
939.82	9869.49
939.99	9887.68
940.16	9886.20
940.33	9842.54
940.50	9800.35
940.67	9756.77
940.85	9770.94
941.02	9744.56
941.19	9745.14
941.36	9668.87
941.53	9679.85
941.70	9655.11
941.87	9565.57
942.04	9543.78
942.21	9519.53
942.38	9482.34
942.55	9419.76
942.72	9401.32
942.89	9359.87
943.06	9313.51
943.23	9297.78
943.40	9251.08
943.57	9294.83
943.74	9293.93
943.91	9225.44
944.08	9253.62
944.25	9273.04
944.42	9182.44
944.59	9133.78
944.76	9171.54
944.93	9171.62
945.10	9106.91
945.27	9112.48
945.44	9029.66
945.61	9050.30
945.78	9000.66
945.95	8988.86
946.12	8914.07
946.29	8987.14
946.46	8914.81
946.63	8891.05
946.80	8868.44
946.97	8855.91
947.14	8798.57
947.31	8872.13
947.48	8789.47
947.65	8785.70
947.82	8760.80
947.99	8798.97
948.16	8690.84
948.33	8790.13
948.50	8670.03
948.67	8696.99
948.84	8655.37
949.01	8590.41
949.18	8593.85
949.35	8641.20
949.52	8519.96
949.68	8522.66
949.85	8516.36
950.02	8507.84
950.19	8478.43
950.36	8460.16
950.53	8449.02
950.70	8398.88
950.87	8359.40
951.04	8427.88
951.21	8346.62
951.38	8293.37
951.55	8298.78
951.72	8296.08
951.89	8234.96
952.06	8279.86
952.23	8218.58
952.39	8189.66
952.56	8142.64
952.73	8186.14
952.90	8131.99
953.07	8176.56
953.24	8055.40
953.41	8095.62
953.58	8010.02
953.75	8105.37
953.92	8009.03
954.09	7978.23
954.25	7934.65
954.42	7955.54
954.59	7910.57
954.76	7898.44
954.93	7852.08
955.10	7863.05
955.27	7789.82
955.44	7842.82
955.61	7761.39
955.77	7881.32
955.94	7788.18
956.11	7820.05
956.28	7796.78
956.45	7751.81
956.62	7804.07
956.79	7773.27
956.96	7759.67
957.12	7754.10
957.29	7728.79
957.46	7690.37
957.63	7635.73
957.80	7625.98
957.97	7612.55
958.14	7667.35
958.30	7570.77
958.47	7580.60
958.64	7533.82
958.81	7553.73
958.98	7469.68
959.15	7499.58
959.32	7535.95
959.48	7457.64
959.65	7401.60
959.82	7430.52
959.99	7360.24
960.16	7388.09
960.33	7337.71
960.49	7321.16
960.66	7347.29
960.83	7327.30
961.00	7326.08
961.17	7304.86
961.33	7256.44
961.50	7242.19
961.67	7223.92
961.84	7260.46
962.01	7199.02
962.18	7226.38
962.34	7154.46
962.51	7152.82
962.68	7086.14
962.85	7180.34
963.02	7082.94
963.18	7105.55
963.35	7020.27
963.52	7045.59
963.69	7042.96
963.86	7003.32
964.02	6956.29
964.19	7009.54
964.36	6961.13
964.53	6952.85
964.69	6907.55
964.86	6948.68
965.03	6857.01
965.20	6901.33
965.37	6797.45
965.53	6843.90
965.70	6791.80
965.87	6819.57
966.04	6772.71
966.20	6746.50
966.37	6750.60
966.54	6685.55
966.71	6776.89
966.87	6712.01
967.04	6718.98
967.21	6710.62
967.38	6665.56
967.54	6684.49
967.71	6640.99
967.88	6634.44
968.05	6620.59
968.21	6581.35
968.38	6560.95
968.55	6584.30
968.72	6573.98
968.88	6514.18
969.05	6569.72
969.22	6509.92
969.39	6499.84
969.55	6524.01
969.72	6421.37
969.89	6450.86
970.05	6460.28
970.22	6458.64
970.39	6380.73
970.56	6418.91
970.72	6391.79
970.89	6400.89
971.06	6363.37
971.22	6363.69
971.39	6354.44
971.56	6358.53
971.73	6314.62
971.89	6356.24
972.06	6322.57
972.23	6318.15
972.39	6244.01
972.56	6287.35
972.73	6187.49
972.89	6256.79
973.06	6242.62
973.23	6222.55
973.39	6170.86
973.56	6203.38
973.73	6167.17
973.89	6194.78
974.06	6119.00
974.23	6129.08
974.39	6088.53
974.56	6106.72
974.73	6064.77
974.89	6049.29
975.06	6033.07
975.23	6085.50
975.39	6014.07
975.56	6007.43
975.73	6009.31
975.89	6010.46
976.06	5934.19
976.23	5950.09
976.39	5931.82
976.56	5929.61
976.73	5917.97
976.89	5898.81
977.06	5896.27
977.23	5866.78
977.39	5888.32
977.56	5868.50
977.72	5806.73
977.89	5889.88
978.06	5827.62
978.22	5811.32
978.39	5802.71
978.56	5793.21
978.72	5772.08
978.89	5761.59
979.05	5763.31
979.22	5755.86
979.39	5736.11
979.55	5718.58
979.72	5697.29
979.88	5760.44
980.05	5673.20
980.22	5711.21
980.38	5677.62
980.55	5683.93
980.71	5644.45
980.88	5658.05
981.05	5645.84
981.21	5629.37
981.38	5626.26
981.54	5648.22
981.71	5584.65
981.88	5597.67
982.04	5585.22
982.21	5575.88
982.37	5541.39
982.54	5554.26
982.70	5511.90
982.87	5541.80
983.04	5465.05
983.20	5563.27
983.37	5454.40
983.53	5492.73
983.70	5472.66
983.86	5443.34
984.03	5450.79
984.20	5450.30
984.36	5424.74
984.53	5429.17
984.69	5386.08
984.86	5363.38
985.02	5368.63
985.19	5360.68
985.35	5338.48
985.52	5349.05
985.68	5303.67
985.85	5288.43
986.02	5302.52
986.18	5283.43
986.35	5290.39
986.51	5291.54
986.68	5291.87
986.84	5253.70
987.01	5273.03
987.17	5257.22
987.34	5218.88
987.50	5237.15
987.67	5203.15
987.83	5221.42
988.00	5182.59
988.16	5176.45
988.33	5156.29
988.49	5157.52
988.66	5159.98
988.82	5136.96
988.99	5137.45
989.15	5138.19
989.32	5090.43
989.48	5097.07
989.65	5063.89
989.81	5086.42
989.98	5054.22
990.14	5051.77
990.31	5076.91
990.47	5058.16
990.64	5027.52
990.80	5020.55
990.97	4995.65
991.13	5016.38
991.30	4996.22
991.46	4983.04
991.63	4975.91
991.79	4979.35
991.95	4929.30
992.12	4989.02
992.28	4952.07
992.45	4944.94
992.61	4917.99
992.78	4930.53
992.94	4899.89
993.11	4929.46
993.27	4904.39
993.44	4895.87
993.60	4857.37
993.76	4879.74
993.93	4874.00
994.09	4850.74
994.26	4849.75
994.42	4819.94
994.59	4802.00
994.75	4833.53
994.91	4796.42
995.08	4765.71
995.24	4764.89
995.41	4793.39
995.57	4745.23
995.74	4773.24
995.90	4729.91
996.06	4738.10
996.23	4746.13
996.39	4720.08
996.56	4705.74
996.72	4720.49
996.88	4722.21
997.05	4725.81
997.21	4675.43
997.38	4707.62
997.54	4646.68
997.70	4663.72
997.87	4689.68
998.03	4680.18
998.20	4640.29
998.36	4632.34
998.52	4651.10
998.69	4675.51
998.85	4622.35
999.02	4636.52
999.18	4579.26
999.34	4589.09
999.51	4599.49
999.67	4601.13
999.83	4587.53
1000.00	4569.43
1000.16	4560.99
1000.33	4554.44
1000.49	4527.16
1000.65	4570.33
1000.82	4546.00
1000.98	4522.24
1001.14	4505.20
1001.31	4530.52
1001.47	4504.63
1001.63	4514.95
1001.80	4474.24
1001.96	4476.04
1002.12	4465.96
1002.29	4472.93
1002.45	4440.32
1002.61	4441.47
1002.78	4434.67
1002.94	4425.41
1003.10	4414.60
1003.27	4442.21
1003.43	4399.61
1003.59	4416.65
1003.76	4402.64
1003.92	4397.07
1004.08	4383.64
1004.25	4386.26
1004.41	4369.14
1004.57	4362.34
1004.74	4351.44
1004.90	4378.48
1005.06	4328.34
1005.23	4336.53
1005.39	4352.26
1005.55	4347.18
1005.71	4338.09
1005.88	4342.02
1006.04	4317.61
1006.20	4322.77
1006.37	4275.75
1006.53	4298.77
1006.69	4291.23
1006.85	4279.11
1007.02	4268.38
1007.18	4273.13
1007.34	4245.60
1007.51	4263.95
1007.67	4244.29
1007.83	4233.07
1007.99	4213.16
1008.16	4225.53
1008.32	4210.21
1008.48	4220.13
1008.64	4203.50
1008.81	4212.92
1008.97	4173.76
1009.13	4197.35
1009.29	4161.23
1009.46	4192.52
1009.62	4173.19
1009.78	4148.78
1009.95	4157.95
1010.11	4162.29
1010.27	4130.43
1010.43	4154.35
1010.59	4137.31
1010.76	4116.01
1010.92	4090.45
1011.08	4121.99
1011.24	4099.21
1011.41	4134.52
1011.57	4103.31
1011.73	4101.75
1011.89	4066.69
1012.06	4116.50
1012.22	4056.21
1012.38	4076.03
1012.54	4030.89
1012.70	4065.55
1012.87	4037.37
1013.03	4055.72
1013.19	4036.55
1013.35	4052.68
1013.51	4000.09
1013.68	4047.85
1013.84	4001.89
1014.00	4021.23
1014.16	3995.26
1014.32	4012.22
1014.49	3996.00
1014.65	4011.97
1014.81	3968.39
1014.97	3973.55
1015.13	3986.49
1015.30	3978.55
1015.46	3970.44
1015.62	3968.39
1015.78	3964.38
1015.94	3971.09
1016.10	3938.74
1016.27	3949.47
1016.43	3924.40
1016.59	3965.44
1016.75	3937.67
1016.91	3930.71
1017.07	3905.97
1017.24	3917.85
1017.40	3898.19
1017.56	3916.54
1017.72	3868.04
1017.88	3905.89
1018.04	3877.21
1018.21	3886.39
1018.37	3866.16
1018.53	3860.01
1018.69	3873.04
1018.85	3852.15
1019.01	3848.22
1019.17	3846.99
1019.34	3849.94
1019.50	3839.20
1019.66	3820.53
1019.82	3805.13
1019.98	3803.82
1020.14	3836.91
1020.30	3838.55
1020.46	3820.44
1020.63	3813.65
1020.79	3812.33
1020.95	3799.31
1021.11	3812.74
1021.27	3781.21
1021.43	3782.68
1021.59	3792.84
1021.75	3782.02
1021.91	3769.66
1022.07	3769.74
1022.24	3764.90
1022.40	3754.09
1022.56	3749.09
1022.72	3755.65
1022.88	3745.73
1023.04	3753.68
1023.20	3730.01
1023.36	3738.53
1023.52	3736.81
1023.68	3737.13
1023.84	3714.69
1024.01	3726.73
1024.17	3710.10
1024.33	3719.93
1024.49	3725.66
1024.65	3702.32
1024.81	3698.80
1024.97	3698.39
1025.13	3684.13
1025.29	3683.07
1025.45	3681.02
1025.61	3706.17
1025.77	3664.80
1025.93	3691.91
1026.09	3660.79
1026.25	3693.80
1026.41	3656.69
1026.57	3679.79
1026.73	3686.92
1026.90	3644.40
1027.06	3655.54
1027.22	3661.69
1027.38	3652.02
1027.54	3669.39
1027.70	3649.15
1027.86	3669.96
1028.02	3648.09
1028.18	3641.70
1028.34	3633.75
1028.50	3657.10
1028.66	3614.42
1028.82	3617.53
1028.98	3615.07
1029.14	3609.91
1029.30	3635.80
1029.46	3624.99
1029.62	3612.45
1029.78	3594.76
1029.94	3614.09
1030.10	3603.93
1030.26	3582.96
1030.42	3607.21
1030.58	3588.70
1030.74	3593.28
1030.90	3561.09
1031.06	3586.81
1031.22	3564.86
1031.38	3574.69
1031.54	3555.44
1031.70	3567.64
1031.86	3557.24
1032.02	3576.57
1032.18	3541.10
1032.34	3553.31
1032.50	3557.81
1032.66	3566.50
1032.82	3530.62
1032.98	3550.93
1033.14	3546.34
1033.30	3543.72
1033.45	3535.37
1033.61	3541.18
1033.77	3541.68
1033.93	3541.02
1034.09	3510.22
1034.25	3528.90
1034.41	3512.92
1034.57	3519.48
1034.73	3536.68
1034.89	3523.82
1035.05	3496.87
1035.21	3522.83
1035.37	3499.98
1035.53	3512.68
1035.69	3492.36
1035.85	3526.77
1036.01	3487.69
1036.16	3494.16
1036.32	3476.71
1036.48	3492.36
1036.64	3472.04
1036.80	3503.83
1036.96	3492.69
1037.12	3474.91
1037.28	3489.98
1037.44	3485.07
1037.60	3461.23
1037.76	3462.71
1037.91	3463.44
1038.07	3485.56
1038.23	3463.44
1038.39	3468.69
1038.55	3466.47
1038.71	3460.33
1038.87	3443.29
1039.03	3479.17
1039.19	3436.49
1039.35	3454.27
1039.50	3464.59
1039.66	3455.01
1039.82	3428.71
1039.98	3433.95
1040.14	3445.01
1040.30	3438.05
1040.46	3420.11
1040.62	3440.83
1040.77	3433.46
1040.93	3467.54
1041.09	3407.90
1041.25	3415.27
1041.41	3418.14
1041.57	3425.27
1041.73	3425.27
1041.88	3425.27

