SpectraSuite Data File
++++++++++++++++++++++++++++++++++++
Date: Tue Sep 20 12:03:44 EDT 2022
User: Laboratoire
Dark Spectrum Present: No
Reference Spectrum Present: No
Number of Sampled Component Spectra: 1
Spectrometers: FLMT00174
Integration Time (usec): 15000 (FLMT00174)
Spectra Averaged: 25 (FLMT00174)
Boxcar Smoothing: 0 (FLMT00174)
Correct for Electrical Dark: No (FLMT00174)
Strobe/Lamp Enabled: No (FLMT00174)
Correct for Detector Non-linearity: No (FLMT00174)
Correct for Stray Light: No (FLMT00174)
Number of Pixels in Processed Spectrum: 3648
>>>>>Begin Processed Spectral Data<<<<<
345.74	3150.27
345.96	3150.27
346.18	3150.27
346.39	3180.99
346.61	3211.22
346.83	3205.40
347.05	3222.85
347.27	3202.29
347.49	3211.13
347.71	3231.45
347.93	3226.62
348.15	3227.68
348.36	3218.75
348.58	3241.77
348.80	3230.96
349.02	3207.04
349.24	3212.94
349.46	3291.33
349.68	3317.63
349.90	3322.05
350.11	3282.65
350.33	3300.83
350.55	3291.25
350.77	3299.20
350.99	3286.33
351.21	3296.66
351.43	3281.01
351.65	3304.03
351.86	3300.26
352.08	3300.92
352.30	3285.76
352.52	3315.50
352.74	3274.87
352.96	3289.69
353.18	3313.53
353.39	3300.10
353.61	3306.57
353.83	3301.90
354.05	3319.68
354.27	3303.05
354.49	3305.91
354.70	3305.26
354.92	3288.87
355.14	3298.79
355.36	3282.48
355.58	3300.83
355.80	3291.58
356.02	3309.03
356.23	3297.39
356.45	3295.10
356.67	3307.06
356.89	3316.97
357.11	3286.33
357.33	3309.85
357.54	3288.87
357.76	3297.72
357.98	3289.69
358.20	3302.31
358.42	3288.87
358.63	3296.08
358.85	3287.48
359.07	3309.93
359.29	3296.16
359.51	3306.24
359.73	3310.09
359.94	3302.88
360.16	3290.51
360.38	3324.75
360.60	3285.27
360.82	3297.72
361.03	3305.42
361.25	3300.75
361.47	3310.99
361.69	3317.30
361.91	3297.80
362.12	3297.39
362.34	3306.65
362.56	3311.89
362.78	3301.00
363.00	3322.46
363.21	3292.48
363.43	3321.81
363.65	3293.54
363.87	3317.46
364.09	3313.04
364.30	3301.24
364.52	3302.64
364.74	3309.03
364.96	3300.67
365.17	3315.50
365.39	3314.02
365.61	3295.43
365.83	3308.86
366.05	3294.36
366.26	3317.22
366.48	3309.11
366.70	3305.09
366.92	3319.84
367.13	3305.09
367.35	3312.30
367.57	3330.65
367.79	3305.34
368.01	3310.09
368.22	3329.34
368.44	3310.09
368.66	3314.68
368.88	3306.98
369.09	3290.84
369.31	3319.10
369.53	3312.22
369.75	3291.41
369.96	3316.32
370.18	3297.80
370.40	3327.05
370.62	3300.42
370.83	3308.70
371.05	3333.11
371.27	3335.65
371.49	3314.19
371.70	3326.56
371.92	3308.12
372.14	3322.46
372.36	3296.90
372.57	3312.88
372.79	3318.94
373.01	3323.44
373.22	3321.31
373.44	3327.21
373.66	3310.58
373.88	3337.45
374.09	3329.34
374.31	3302.80
374.53	3312.55
374.75	3346.87
374.96	3306.73
375.18	3345.15
375.40	3308.37
375.61	3324.18
375.83	3319.02
376.05	3329.83
376.27	3321.40
376.48	3312.96
376.70	3328.36
376.92	3314.02
377.13	3317.71
377.35	3315.74
377.57	3330.90
377.79	3302.96
378.00	3321.40
378.22	3340.73
378.44	3329.42
378.65	3343.51
378.87	3327.21
379.09	3342.69
379.30	3326.72
379.52	3339.50
379.74	3318.69
379.96	3329.67
380.17	3330.32
380.39	3326.64
380.61	3340.56
380.82	3346.22
381.04	3325.25
381.26	3351.95
381.47	3339.99
381.69	3357.36
381.91	3333.44
382.12	3344.09
382.34	3359.49
382.56	3331.31
382.77	3335.16
382.99	3349.00
383.21	3344.99
383.42	3365.39
383.64	3368.58
383.86	3368.66
384.07	3365.30
384.29	3360.14
384.51	3358.91
384.72	3355.06
384.94	3353.59
385.16	3356.95
385.37	3355.15
385.59	3364.73
385.81	3364.98
386.02	3352.03
386.24	3370.63
386.46	3359.65
386.67	3369.48
386.89	3384.39
387.11	3397.99
387.32	3374.89
387.54	3362.36
387.76	3394.71
387.97	3392.67
388.19	3398.40
388.40	3376.61
388.62	3367.43
388.84	3388.08
389.05	3390.70
389.27	3389.06
389.49	3393.81
389.70	3382.10
389.92	3389.14
390.14	3402.33
390.35	3399.96
390.57	3394.71
390.78	3405.03
391.00	3397.83
391.22	3401.35
391.43	3389.88
391.65	3416.18
391.86	3424.04
392.08	3413.06
392.30	3406.92
392.51	3426.01
392.73	3445.42
392.95	3409.79
393.16	3404.63
393.38	3442.55
393.59	3400.45
393.81	3441.73
394.03	3425.68
394.24	3432.40
394.46	3431.00
394.67	3441.98
394.89	3445.34
395.11	3449.11
395.32	3446.98
395.54	3470.00
395.75	3441.24
395.97	3442.64
396.19	3442.80
396.40	3469.26
396.62	3452.63
396.83	3457.38
397.05	3459.51
397.26	3478.60
397.48	3464.26
397.70	3468.69
397.91	3483.76
398.13	3474.91
398.34	3480.07
398.56	3485.07
398.78	3497.77
398.99	3518.41
399.21	3487.20
399.42	3520.62
399.64	3486.30
399.85	3502.11
400.07	3508.83
400.29	3534.22
400.50	3508.42
400.72	3525.54
400.93	3517.10
401.15	3504.32
401.36	3517.10
401.58	3552.16
401.79	3547.49
402.01	3557.65
402.23	3552.98
402.44	3563.30
402.66	3532.91
402.87	3562.81
403.09	3549.46
403.30	3572.64
403.52	3546.67
403.73	3555.11
403.95	3562.65
404.16	3580.59
404.38	3575.75
404.60	3584.11
404.81	3584.60
405.03	3604.34
405.24	3589.76
405.46	3602.30
405.67	3585.50
405.89	3610.81
406.10	3597.46
406.32	3596.07
406.53	3641.21
406.75	3642.84
406.96	3631.29
407.18	3635.47
407.39	3616.22
407.61	3631.29
407.82	3626.13
408.04	3663.32
408.25	3638.59
408.47	3659.56
408.68	3667.83
408.90	3648.33
409.12	3652.27
409.33	3683.23
409.55	3661.36
409.76	3681.84
409.98	3673.97
410.19	3686.51
410.41	3686.34
410.62	3704.78
410.84	3705.76
411.05	3703.30
411.27	3731.32
411.48	3729.60
411.70	3731.07
411.91	3734.35
412.12	3737.38
412.34	3726.81
412.55	3757.78
412.77	3757.53
412.98	3754.91
413.20	3728.45
413.41	3772.60
413.63	3754.91
413.84	3768.67
414.06	3782.35
414.27	3769.49
414.49	3785.88
414.70	3781.78
414.92	3793.90
415.13	3789.97
415.35	3817.74
415.56	3805.21
415.78	3820.28
415.99	3834.13
416.21	3828.15
416.42	3852.56
416.63	3865.34
416.85	3869.76
417.06	3851.98
417.28	3852.31
417.49	3880.00
417.71	3876.31
417.92	3852.80
418.14	3869.84
418.35	3898.68
418.57	3892.70
418.78	3906.30
418.99	3881.80
419.21	3911.95
419.42	3916.95
419.64	3916.70
419.85	3938.98
420.07	3953.48
420.28	3938.49
420.50	3953.56
420.71	3964.05
420.92	3967.16
421.14	3995.34
421.35	3969.21
421.57	3984.04
421.78	3997.72
422.00	3972.98
422.21	3998.86
422.42	3983.95
422.64	4015.98
422.85	4031.22
423.07	4041.46
423.28	4036.55
423.50	4042.77
423.71	4046.79
423.92	4075.05
424.14	4055.63
424.35	4058.75
424.57	4081.19
424.78	4119.69
424.99	4102.82
425.21	4118.87
425.42	4102.41
425.64	4108.72
425.85	4126.25
426.06	4139.76
426.28	4138.54
426.49	4171.38
426.71	4159.01
426.92	4163.03
427.13	4200.14
427.35	4221.36
427.56	4232.99
427.78	4211.12
427.99	4203.33
428.20	4259.53
428.42	4241.34
428.63	4263.54
428.84	4237.90
429.06	4265.35
429.27	4286.40
429.49	4295.49
429.70	4310.89
429.91	4309.25
430.13	4332.93
430.34	4334.81
430.56	4378.07
430.77	4363.65
430.98	4342.19
431.20	4401.58
431.41	4394.37
431.62	4401.90
431.84	4375.53
432.05	4423.53
432.26	4436.06
432.48	4395.60
432.69	4447.04
432.91	4457.04
433.12	4435.82
433.33	4479.40
433.55	4515.20
433.76	4522.65
433.97	4496.60
434.19	4510.69
434.40	4550.42
434.61	4553.78
434.83	4553.29
435.04	4526.83
435.25	4583.35
435.47	4592.94
435.68	4574.67
435.89	4644.71
436.11	4610.14
436.32	4632.10
436.53	4634.64
436.75	4644.30
436.96	4625.71
437.17	4650.28
437.39	4668.47
437.60	4685.92
437.81	4687.15
438.03	4701.40
438.24	4723.93
438.45	4764.72
438.67	4727.53
438.88	4778.40
439.09	4817.23
439.31	4811.91
439.52	4803.22
439.73	4796.67
439.94	4772.18
440.16	4825.18
440.37	4787.82
440.58	4869.66
440.80	4852.05
441.01	4853.60
441.22	4928.97
441.44	4919.47
441.65	4896.28
441.86	4919.14
442.08	4928.81
442.29	4949.12
442.50	4947.40
442.71	4955.43
442.93	4988.20
443.14	4974.52
443.35	5014.66
443.57	4998.60
443.78	5031.86
443.99	5032.76
444.20	5031.53
444.42	5079.04
444.63	5082.65
444.84	5120.58
445.06	5129.92
445.27	5098.46
445.48	5119.76
445.69	5127.87
445.91	5142.86
446.12	5111.98
446.33	5152.94
446.54	5221.17
446.76	5172.84
446.97	5207.49
447.18	5181.28
447.39	5230.27
447.61	5264.02
447.82	5262.71
448.03	5244.52
448.25	5288.92
448.46	5313.74
448.67	5342.17
448.88	5320.95
449.10	5352.41
449.31	5369.53
449.52	5354.46
449.73	5386.24
449.95	5435.39
450.16	5373.05
450.37	5465.54
450.58	5538.53
450.79	5407.70
451.01	5476.27
451.22	5479.38
451.43	5484.54
451.64	5548.68
451.86	5538.61
452.07	5551.06
452.28	5574.57
452.49	5682.70
452.71	5574.57
452.92	5595.05
453.13	5637.07
453.34	5651.74
453.55	5681.15
453.77	5698.92
453.98	5704.49
454.19	5696.38
454.40	5727.84
454.62	5765.61
454.83	5724.24
455.04	5817.21
455.25	5762.57
455.46	5918.88
455.68	5843.67
455.89	5839.17
456.10	5861.12
456.31	5893.89
456.52	5910.03
456.74	5936.00
456.95	6016.93
457.16	5972.94
457.37	6027.17
457.58	6002.84
457.80	5992.93
458.01	5997.27
458.22	6194.29
458.43	6100.74
458.64	6098.69
458.86	6079.35
459.07	6137.27
459.28	6134.90
459.49	6195.52
459.70	6320.28
459.91	6243.93
460.13	6256.95
460.34	6261.62
460.55	6255.89
460.76	6302.75
460.97	6327.49
461.19	6349.60
461.40	6418.99
461.61	6393.59
461.82	6433.90
462.03	6483.79
462.24	6465.36
462.46	6462.57
462.67	6478.05
462.88	6537.36
463.09	6533.84
463.30	6609.04
463.51	6576.19
463.72	6662.29
463.94	6644.27
464.15	6680.64
464.36	6623.29
464.57	6777.88
464.78	6785.82
464.99	6801.39
465.20	6782.71
465.42	6858.65
465.63	6868.07
465.84	6869.21
466.05	6952.36
466.26	7006.59
466.47	6983.16
466.68	6956.79
466.90	7055.33
467.11	7018.31
467.32	7144.13
467.53	7195.01
467.74	7067.95
467.95	7143.89
468.16	7255.71
468.37	7277.66
468.59	7252.27
468.80	7355.24
469.01	7276.02
469.22	7385.06
469.43	7507.36
469.64	7432.49
469.85	7524.65
470.06	7519.73
470.28	7600.42
470.49	7489.01
470.70	7602.88
470.91	7737.96
471.12	7665.55
471.33	7811.94
471.54	7775.15
471.75	7788.26
471.96	7930.80
472.17	7895.25
472.39	8082.92
472.60	7887.55
472.81	8126.09
473.02	8045.57
473.23	8157.39
473.44	8223.09
473.65	8179.26
473.86	8282.72
474.07	8265.52
474.28	8326.06
474.49	8460.90
474.71	8399.54
474.92	8538.06
475.13	8476.21
475.34	8546.50
475.55	8540.44
475.76	8644.48
475.97	8785.95
476.18	8759.41
476.39	8891.62
476.60	8947.90
476.81	8951.59
477.02	9063.24
477.23	9033.51
477.44	9035.31
477.65	9114.61
477.87	9243.22
478.08	9220.77
478.29	9309.41
478.50	9461.78
478.71	9395.92
478.92	9475.21
479.13	9493.48
479.34	9599.08
479.55	9619.06
479.76	9639.30
479.97	9659.53
480.18	9877.52
480.39	9738.66
480.60	9959.27
480.81	9990.24
481.02	9991.88
481.23	10056.59
481.44	10197.08
481.65	10267.94
481.86	10370.01
482.07	10217.40
482.28	10566.78
482.49	10481.18
482.71	10468.07
482.92	10608.15
483.13	10713.33
483.34	10675.65
483.55	10722.84
483.76	10780.92
483.97	10909.94
484.18	10950.57
484.39	11016.60
484.60	10990.38
484.81	11162.49
485.02	11108.43
485.23	11245.23
485.44	11326.25
485.65	11386.95
485.86	11340.83
486.07	11504.75
486.28	11508.77
486.49	11579.54
486.70	11678.34
486.91	11768.28
487.12	11752.96
487.33	11765.01
487.54	11969.56
487.75	12007.32
487.96	12000.28
488.17	11982.26
488.38	12104.40
488.59	12173.13
488.80	12231.29
489.01	12223.67
489.22	12433.14
489.43	12408.31
489.64	12346.71
489.85	12591.49
490.06	12421.26
490.26	12600.25
490.47	12616.39
490.68	12701.75
490.89	12864.93
491.10	12700.68
491.31	12928.83
491.52	13039.99
491.73	13010.25
491.94	13041.14
492.15	13148.70
492.36	13196.70
492.57	13184.50
492.78	13170.65
492.99	13284.52
493.20	13351.45
493.41	13374.22
493.62	13425.17
493.83	13460.40
494.04	13503.40
494.25	13702.55
494.46	13672.98
494.67	13577.71
494.88	13773.90
495.08	13779.23
495.29	13797.90
495.50	13954.45
495.71	13851.07
495.92	14035.14
496.13	14011.79
496.34	13999.18
496.55	14092.24
496.76	14278.19
496.97	14097.23
497.18	14330.21
497.39	14226.67
497.60	14455.55
497.81	14257.30
498.02	14443.67
498.22	14306.04
498.43	14507.16
498.64	14513.30
498.85	14554.34
499.06	14578.83
499.27	14736.45
499.48	14501.99
499.69	14693.68
499.90	14733.58
500.11	14827.62
500.32	14942.72
500.52	14784.53
500.73	15087.80
500.94	15040.12
501.15	15084.93
501.36	15136.78
501.57	15081.49
501.78	15182.08
501.99	15338.06
502.20	15326.67
502.41	15405.15
502.61	15310.04
502.82	15517.30
503.03	15334.53
503.24	15592.74
503.45	15428.00
503.66	15551.37
503.87	15560.96
504.08	15684.90
504.28	15646.97
504.49	15695.71
504.70	15743.55
504.91	15871.92
505.12	15730.86
505.33	15972.35
505.54	15927.54
505.75	15946.71
505.95	16082.94
506.16	16054.03
506.37	16018.39
506.58	16252.60
506.79	16033.22
507.00	16248.50
507.21	16094.41
507.41	16109.57
507.62	16234.66
507.83	16388.42
508.04	16237.77
508.25	16452.32
508.46	16302.49
508.67	16525.47
508.87	16425.77
509.08	16652.53
509.29	16574.62
509.50	16703.72
509.71	16682.84
509.92	16762.95
510.12	16654.66
510.33	16751.97
510.54	16678.00
510.75	16766.15
510.96	16927.12
511.17	17017.06
511.37	16954.89
511.58	17015.10
511.79	16980.36
512.00	16967.99
512.21	17195.16
512.42	17142.73
512.62	17237.59
512.83	17350.64
513.04	17297.72
513.25	17527.83
513.46	17172.96
513.66	17594.26
513.87	17478.68
514.08	17612.61
514.29	17567.15
514.50	17548.72
514.71	17710.75
514.91	17634.16
515.12	17632.93
515.33	17794.96
515.54	17756.05
515.75	17950.77
515.95	17732.62
516.16	17749.50
516.37	17909.40
516.58	17975.92
516.78	17863.37
516.99	18041.46
517.20	18049.40
517.41	18069.80
517.62	18197.92
517.82	18070.54
518.03	18296.96
518.24	18389.78
518.45	18155.49
518.66	18335.14
518.86	18258.79
519.07	18477.51
519.28	18195.63
519.49	18529.86
519.69	18524.61
519.90	18577.70
520.11	18598.51
520.32	18570.65
520.52	18779.46
520.73	18583.43
520.94	18861.87
521.15	18778.24
521.36	18679.44
521.56	19010.72
521.77	18773.89
521.98	19076.42
522.19	18850.00
522.39	19019.90
522.60	18924.62
522.81	19024.81
523.02	18920.36
523.22	19155.88
523.43	19265.73
523.64	19178.74
523.84	19271.14
524.05	19422.69
524.26	19428.10
524.47	19282.20
524.67	19457.83
524.88	19513.54
525.09	19618.97
525.30	19512.88
525.50	19521.81
525.71	19597.34
525.92	19628.22
526.13	19776.58
526.33	19733.82
526.54	19604.96
526.75	19741.11
526.95	19928.29
527.16	19595.37
527.37	19950.16
527.58	19899.13
527.78	19923.38
527.99	20128.83
528.20	20189.70
528.40	20042.00
528.61	20012.26
528.82	20171.51
529.03	20144.89
529.23	20159.96
529.44	20350.01
529.65	20364.76
529.85	20403.83
530.06	20395.72
530.27	20391.87
530.47	20241.96
530.68	20670.39
530.89	20322.08
531.09	20618.95
531.30	20557.92
531.51	20494.11
531.72	20667.85
531.92	20730.36
532.13	20788.52
532.34	20787.54
532.54	20774.84
532.75	20828.42
532.96	20856.02
533.16	20900.18
533.37	21046.57
533.58	20925.65
533.78	21055.00
533.99	21033.38
534.20	20931.39
534.40	21052.38
534.61	21198.44
534.82	21241.12
535.02	21289.54
535.23	21266.52
535.44	21372.93
535.64	21329.35
535.85	21373.34
536.06	21366.54
536.26	21329.10
536.47	21407.42
536.68	21683.40
536.88	21385.46
537.09	21676.44
537.29	21435.93
537.50	21850.35
537.71	21593.29
537.91	21730.67
538.12	21771.38
538.33	21658.33
538.53	21785.72
538.74	21841.34
538.95	21906.22
539.15	21792.93
539.36	21930.06
539.56	22005.10
539.77	21881.07
539.98	21902.70
540.18	22024.02
540.39	21957.01
540.60	22014.19
540.80	22089.64
541.01	22113.15
541.21	22146.41
541.42	22293.20
541.63	22300.09
541.83	22401.91
542.04	22360.13
542.25	22303.28
542.45	22329.25
542.66	22412.81
542.86	22570.42
543.07	22074.97
543.28	22563.70
543.48	22472.61
543.69	22584.51
543.89	22491.69
544.10	22811.18
544.31	22669.05
544.51	22643.98
544.72	22712.71
544.92	22642.26
545.13	22930.12
545.33	22920.62
545.54	22855.66
545.75	23012.62
545.95	22844.44
546.16	22913.99
546.36	23161.79
546.57	22740.89
546.78	22363.57
546.98	22658.81
547.19	22300.66
547.39	22881.63
547.60	23036.70
547.80	23266.24
548.01	23324.89
548.22	23190.71
548.42	23283.36
548.63	23404.10
548.83	23266.24
549.04	23482.58
549.24	23295.40
549.45	23474.88
549.65	23615.95
549.86	23287.53
550.07	23428.68
550.27	23558.60
550.48	23629.79
550.68	23558.03
550.89	23518.14
551.09	23698.11
551.30	23596.12
551.50	23766.27
551.71	23668.46
551.91	23683.53
552.12	23793.22
552.33	23941.16
552.53	23687.54
552.74	23954.52
552.94	23973.44
553.15	23849.09
553.35	24010.88
553.56	23837.70
553.76	24063.06
553.97	23898.89
554.17	24048.89
554.38	24320.69
554.58	23991.71
554.79	24255.00
554.99	24085.59
555.20	24096.97
555.40	24359.69
555.61	24185.69
555.81	24039.63
556.02	24447.91
556.22	24410.80
556.43	24248.52
556.63	24333.88
556.84	24288.50
557.04	24596.51
557.25	24306.85
557.45	24463.07
557.66	24392.29
557.86	24384.92
558.07	24646.48
558.27	24483.06
558.48	24674.99
558.68	24585.95
558.89	24694.00
559.09	24741.02
559.30	24671.47
559.50	24818.92
559.71	24555.06
559.91	24948.36
560.12	24766.33
560.32	24738.32
560.53	24908.62
560.73	24796.97
560.94	25026.18
561.14	24823.67
561.35	25092.45
561.55	25029.45
561.76	25148.40
561.96	24844.89
562.17	25034.78
562.37	25149.96
562.57	25090.16
562.78	25064.68
562.98	25163.06
563.19	25255.63
563.39	25228.27
563.60	25370.40
563.80	25132.18
564.01	25497.29
564.21	25285.04
564.42	25295.69
564.62	25387.77
564.82	25547.92
565.03	25407.35
565.23	25417.42
565.44	25518.02
565.64	25416.19
565.85	25610.50
566.05	25522.11
566.25	25647.12
566.46	25460.35
566.66	25644.75
566.87	25645.57
567.07	25630.41
567.28	25720.28
567.48	25824.39
567.68	25521.46
567.89	25980.61
568.09	25722.08
568.30	25735.51
568.50	25899.10
568.71	25834.72
568.91	25993.64
569.11	25865.93
569.32	25853.80
569.52	25986.84
569.73	25696.60
569.93	26041.72
570.13	25913.19
570.34	25906.07
570.54	26136.83
570.75	26019.12
570.95	26057.29
571.15	25976.85
571.36	26318.28
571.56	26098.66
571.77	26120.61
571.97	25886.73
572.17	26316.89
572.38	26236.77
572.58	26390.21
572.79	26297.31
572.99	26376.77
573.19	26293.38
573.40	26312.22
573.60	26373.82
573.81	26332.21
574.01	26416.59
574.21	26344.82
574.42	26354.41
574.62	26221.78
574.82	26438.21
575.03	26303.86
575.23	26585.83
575.43	26398.48
575.64	26428.55
575.84	26532.17
576.05	26438.38
576.25	26572.39
576.45	26484.17
576.66	26837.89
576.86	26646.20
577.06	26864.43
577.27	26760.97
577.47	26820.44
577.67	26804.63
577.88	26548.88
578.08	26878.85
578.28	26827.08
578.49	26728.61
578.69	26831.34
578.89	26632.69
579.10	26767.61
579.30	27055.96
579.50	26896.47
579.71	26811.35
579.91	27095.20
580.11	26916.21
580.32	26903.67
580.52	26850.26
580.72	27194.90
580.93	26903.92
581.13	26913.67
581.33	27164.01
581.54	26982.73
581.74	26972.98
581.94	27078.00
582.15	27159.34
582.35	27037.04
582.55	27161.88
582.76	27005.17
582.96	27300.57
583.16	27158.85
583.37	27276.08
583.57	27202.76
583.77	27407.06
583.97	26905.72
584.18	27407.88
584.38	27372.74
584.58	27095.69
584.79	27397.48
584.99	27367.09
585.19	27378.23
585.40	27260.02
585.60	27531.09
585.80	27326.21
586.00	27428.53
586.21	27452.28
586.41	27509.30
586.61	27685.26
586.82	27555.50
587.02	27550.91
587.22	27771.60
587.42	27396.50
587.63	27786.59
587.83	27419.11
588.03	27642.99
588.23	27425.41
588.44	27627.34
588.64	27494.88
588.84	27704.02
589.05	27802.98
589.25	27913.24
589.45	27884.24
589.65	27700.25
589.86	27891.37
590.06	27833.70
590.26	27652.41
590.46	27855.24
590.67	27598.92
590.87	27894.07
591.07	28000.16
591.27	27718.52
591.48	27983.12
591.68	27631.85
591.88	28140.81
592.08	27738.43
592.29	28007.45
592.49	27935.69
592.69	28093.46
592.89	27907.92
593.10	27928.56
593.30	27912.75
593.50	28211.34
593.70	27747.93
593.90	28191.68
594.11	28130.24
594.31	28121.31
594.51	28334.14
594.71	28320.46
594.92	28343.97
595.12	28190.70
595.32	28216.59
595.52	28283.19
595.72	27972.96
595.93	28298.09
596.13	28224.29
596.33	28086.58
596.53	28497.16
596.73	28346.75
596.94	28350.77
597.14	28543.44
597.34	28381.00
597.54	28634.45
597.74	28358.80
597.95	28507.07
598.15	28514.52
598.35	28569.74
598.55	28675.82
598.75	28416.14
598.96	28878.24
599.16	28550.00
599.36	28715.80
599.56	28647.89
599.76	28553.27
599.97	28786.25
600.17	28718.42
600.37	28733.74
600.57	28400.82
600.77	28896.10
600.97	28680.25
601.18	28918.22
601.38	28700.48
601.58	28994.57
601.78	28765.93
601.98	28689.67
602.18	28872.59
602.39	29061.74
602.59	28949.76
602.79	28872.18
602.99	28854.90
603.19	28898.40
603.39	28804.93
603.60	28974.17
603.80	28980.89
604.00	28951.40
604.20	28970.89
604.40	29050.68
604.60	28995.22
604.80	28965.90
605.01	29087.79
605.21	28969.50
605.41	29013.74
605.61	28938.62
605.81	29083.61
606.01	29278.50
606.21	29017.34
606.42	29128.83
606.62	28975.73
606.82	29278.01
607.02	29076.49
607.22	29175.77
607.42	29377.13
607.62	29033.40
607.82	29259.00
608.03	29249.75
608.23	29201.99
608.43	29100.16
608.63	29416.37
608.83	29298.08
609.03	29288.82
609.23	29356.98
609.43	29367.13
609.63	29140.63
609.84	29201.90
610.04	29458.39
610.24	29419.56
610.44	29441.27
610.64	29318.31
610.84	29452.90
611.04	29625.26
611.24	29456.02
611.44	29213.95
611.64	29454.87
611.85	29426.85
612.05	29399.82
612.25	29492.39
612.45	29350.42
612.65	29571.52
612.85	29570.78
613.05	29418.17
613.25	29730.85
613.45	29610.92
613.65	29628.95
613.85	29463.80
614.05	29733.31
614.25	29804.58
614.46	29620.02
614.66	29488.05
614.86	29402.28
615.06	29476.17
615.26	29601.91
615.46	29315.28
615.66	29676.30
615.86	29759.20
616.06	29608.06
616.26	29581.35
616.46	29877.32
616.66	29719.63
616.86	29934.18
617.06	29730.28
617.26	29942.04
617.46	29777.71
617.66	29613.38
617.86	29630.01
618.07	29766.08
618.27	29761.90
618.47	29712.59
618.67	29848.24
618.87	29825.72
619.07	29697.19
619.27	29664.83
619.47	29679.00
619.67	29823.50
619.87	29628.05
620.07	29909.76
620.27	29721.92
620.47	29603.63
620.67	29647.13
620.87	29723.24
621.07	29802.86
621.27	29847.01
621.47	29558.99
621.67	29856.52
621.87	29702.92
622.07	30037.07
622.27	29957.44
622.47	29753.38
622.67	30036.25
622.87	29758.30
623.07	29988.08
623.27	30249.73
623.47	29662.45
623.67	29890.43
623.87	29991.68
624.07	29964.57
624.27	29707.92
624.47	29914.84
624.67	29814.66
624.87	29910.99
625.07	29702.43
625.27	29939.01
625.47	29720.12
625.67	29687.36
625.87	29908.95
626.07	29861.43
626.27	30067.70
626.47	29928.36
626.67	29874.29
626.87	29715.70
627.07	30029.78
627.27	29879.45
627.47	30016.75
627.67	29798.44
627.87	29796.31
628.07	30080.24
628.27	29842.84
628.47	29773.21
628.67	30096.62
628.86	30126.44
629.06	29854.96
629.26	29805.07
629.46	30007.41
629.66	30003.73
629.86	29684.41
630.06	29962.77
630.26	29955.64
630.46	30155.19
630.66	29937.62
630.86	30009.38
631.06	30070.82
631.26	29915.50
631.46	30255.54
631.66	30135.53
631.86	29998.07
632.06	30276.35
632.26	30145.69
632.45	30126.69
632.65	30202.95
632.85	30250.79
633.05	30164.94
633.25	30126.93
633.45	29809.91
633.65	29886.17
633.85	30224.17
634.05	29736.67
634.25	29957.44
634.45	29939.42
634.65	30211.72
634.84	29904.03
635.04	30002.82
635.24	29786.80
635.44	29972.10
635.64	29848.41
635.84	30078.35
636.04	30017.49
636.24	30053.70
636.44	30066.97
636.64	29802.53
636.84	30333.69
637.03	29901.65
637.23	30124.72
637.43	30168.63
637.63	30001.60
637.83	30216.71
638.03	30143.40
638.23	29876.83
638.43	30046.00
638.62	30261.11
638.82	29745.03
639.02	30217.29
639.22	30003.40
639.42	30193.61
639.62	29965.96
639.82	30110.14
640.02	30025.93
640.21	30147.66
640.41	29812.04
640.61	30088.59
640.81	29964.49
641.01	29980.95
641.21	29805.65
641.41	30295.52
641.61	29887.48
641.80	30018.22
642.00	30179.03
642.20	30199.76
642.40	29871.84
642.60	30104.08
642.80	30170.02
642.99	30035.76
643.19	30141.27
643.39	29845.87
643.59	30074.67
643.79	30012.57
643.99	30138.24
644.19	30155.68
644.38	29865.36
644.58	30093.67
644.78	30013.80
644.98	29939.75
645.18	30123.98
645.38	30250.96
645.57	29996.68
645.77	30176.98
645.97	29947.77
646.17	30210.57
646.37	30121.69
646.56	30080.07
646.76	30097.52
646.96	30089.17
647.16	29932.54
647.36	30151.59
647.55	30046.65
647.75	30031.33
647.95	29936.31
648.15	30048.21
648.35	30087.86
648.55	30077.70
648.74	29977.10
648.94	30060.74
649.14	30297.65
649.34	30022.24
649.54	29933.44
649.73	29990.21
649.93	29963.34
650.13	29971.53
650.33	29770.83
650.52	30108.17
650.72	30162.89
650.92	30019.70
651.12	29885.93
651.32	30016.75
651.51	30074.91
651.71	30075.65
651.91	29960.55
652.11	29908.70
652.30	29772.71
652.50	30096.05
652.70	30005.53
652.90	29731.59
653.10	29873.15
653.29	29823.91
653.49	29953.18
653.69	29808.35
653.89	29895.43
654.08	29823.91
654.28	29996.27
654.48	29932.21
654.68	29992.58
654.87	29987.51
655.07	29768.45
655.27	30000.28
655.47	29769.52
655.66	29757.81
655.86	29684.57
656.06	30019.62
656.26	29541.05
656.45	29775.25
656.65	29696.20
656.85	29739.62
657.04	29591.51
657.24	29668.35
657.44	29618.63
657.64	30009.21
657.83	29477.72
658.03	29860.94
658.23	29777.06
658.43	29717.01
658.62	29657.37
658.82	29604.86
659.02	29541.29
659.21	29655.65
659.41	29545.06
659.61	29800.08
659.81	29661.06
660.00	29493.54
660.20	29659.01
660.40	29511.97
660.59	29637.88
660.79	29388.60
660.99	29710.46
661.19	29721.27
661.38	29590.77
661.58	29301.85
661.78	29461.83
661.97	29292.42
662.17	29738.72
662.37	29382.45
662.56	29449.95
662.76	29387.12
662.96	29521.63
663.15	29569.39
663.35	29478.71
663.55	29265.88
663.74	29168.65
663.94	29455.93
664.14	29149.64
664.33	29426.77
664.53	29220.09
664.73	29564.64
664.93	29099.01
665.12	29570.78
665.32	29314.22
665.52	29328.88
665.71	29246.14
665.91	29376.06
666.10	29313.23
666.30	29489.93
666.50	29142.02
666.69	29182.33
666.89	29396.13
667.09	29483.70
667.28	29183.15
667.48	29201.41
667.68	29257.12
667.87	29366.89
668.07	29118.35
668.27	29456.51
668.46	29384.34
668.66	29225.91
668.86	29371.07
669.05	29240.90
669.25	29469.21
669.44	29233.12
669.64	29117.12
669.84	29121.13
670.03	29345.34
670.23	29161.35
670.43	29254.41
670.62	29232.87
670.82	29212.96
671.01	29362.30
671.21	29073.70
671.41	29141.69
671.60	29272.19
671.80	29321.26
672.00	29197.64
672.19	29345.18
672.39	29157.67
672.58	29109.83
672.78	29026.35
672.98	29252.12
673.17	29063.22
673.37	28761.92
673.56	28984.98
673.76	28995.31
673.96	29228.04
674.15	28972.12
674.35	29018.57
674.54	28951.72
674.74	28987.52
674.94	28927.89
675.13	29017.10
675.33	28795.83
675.52	29092.22
675.72	29076.40
675.91	28997.44
676.11	29258.43
676.31	28893.32
676.50	29016.03
676.70	28938.21
676.89	29201.74
677.09	29209.93
677.28	29189.53
677.48	28876.28
677.68	29139.48
677.87	28852.52
678.07	28937.55
678.26	28889.30
678.46	28889.55
678.65	28792.47
678.85	28967.53
679.04	28648.13
679.24	28764.21
679.44	28605.54
679.63	28856.04
679.83	28731.69
680.02	28791.00
680.22	28667.22
680.41	28860.22
680.61	28682.13
680.80	28593.17
681.00	28675.58
681.19	28689.01
681.39	28489.13
681.59	28502.81
681.78	28456.53
681.98	28689.75
682.17	28388.62
682.37	28510.67
682.56	28300.63
682.76	28604.55
682.95	28446.37
683.15	28528.12
683.34	28467.99
683.54	28532.22
683.73	28590.22
683.93	28374.20
684.12	28552.04
684.32	28685.98
684.51	28401.80
684.71	28519.28
684.90	28506.66
685.10	28459.39
685.29	28521.65
685.49	28571.62
685.68	28420.24
685.88	28371.33
686.07	28143.35
686.27	28339.87
686.46	28156.46
686.66	28096.90
686.85	28285.23
687.05	28154.16
687.24	28150.15
687.44	28455.71
687.63	28372.48
687.83	28118.12
688.02	28335.20
688.22	28364.45
688.41	28203.15
688.61	28171.12
688.80	28166.37
689.00	27905.95
689.19	27795.77
689.39	28168.83
689.58	27970.75
689.77	28088.87
689.97	28102.72
690.16	28082.48
690.36	27864.01
690.55	27824.11
690.75	28228.79
690.94	27908.65
691.14	28001.06
691.33	27786.18
691.53	28025.39
691.72	27787.09
691.91	27825.92
692.11	27820.84
692.30	27906.03
692.50	28038.82
692.69	27793.07
692.89	27905.54
693.08	27788.81
693.28	27799.29
693.47	27906.28
693.66	27888.09
693.86	27865.40
694.05	27707.05
694.25	27704.84
694.44	27723.43
694.64	27579.34
694.83	27580.00
695.02	27609.24
695.22	27739.57
695.41	27503.07
695.61	27489.23
695.80	27513.31
695.99	27579.26
696.19	27548.87
696.38	27560.17
696.58	27344.48
696.77	27733.67
696.96	27540.18
697.16	27422.30
697.35	27410.51
697.55	27419.19
697.74	27363.89
697.93	27639.88
698.13	27346.04
698.32	27544.69
698.52	27359.80
698.71	27163.03
698.90	27616.69
699.10	27265.18
699.29	27275.34
699.49	27501.11
699.68	27249.53
699.87	27121.91
700.07	27400.68
700.26	27253.88
700.45	27306.63
700.65	27151.15
700.84	27339.73
701.04	27057.76
701.23	27204.07
701.42	27104.78
701.62	27084.88
701.81	27057.85
702.00	27112.57
702.20	26892.45
702.39	27099.79
702.58	27216.93
702.78	26907.11
702.97	26984.04
703.17	26996.24
703.36	26932.84
703.55	26851.57
703.75	26906.46
703.94	26999.68
704.13	26793.90
704.33	26815.45
704.52	27059.81
704.71	26964.62
704.91	26985.51
705.10	26833.31
705.29	26795.46
705.49	26910.31
705.68	26860.18
705.87	26801.28
706.07	26588.78
706.26	26838.14
706.45	26515.87
706.65	26446.65
706.84	26695.52
707.03	26898.92
707.23	26443.78
707.42	26452.55
707.61	26554.45
707.80	26481.14
708.00	26457.30
708.19	26409.62
708.38	26614.26
708.58	26259.30
708.77	26656.20
708.96	26288.87
709.16	26274.95
709.35	26704.94
709.54	26391.85
709.74	26265.28
709.93	26050.98
710.12	26440.67
710.31	26613.68
710.51	26320.41
710.70	26377.02
710.89	26378.08
711.09	26077.44
711.28	25982.99
711.47	26181.64
711.66	26124.54
711.86	26137.41
712.05	26170.26
712.24	26359.65
712.43	26139.29
712.63	25963.74
712.82	26200.32
713.01	26137.82
713.21	25929.25
713.40	25929.99
713.59	26168.54
713.78	25758.94
713.98	26027.55
714.17	25771.23
714.36	25867.16
714.55	25637.05
714.75	25764.68
714.94	25743.87
715.13	25906.48
715.32	25540.79
715.52	25772.13
715.71	25562.42
715.90	25696.85
716.09	25574.95
716.29	25830.54
716.48	25721.18
716.67	25368.35
716.86	25552.34
717.06	25547.43
717.25	25538.83
717.44	25535.47
717.63	25506.71
717.82	25256.78
718.02	25448.31
718.21	25549.39
718.40	25557.34
718.59	25500.90
718.79	25385.72
718.98	25346.81
719.17	25537.76
719.36	25596.58
719.55	25421.60
719.75	25332.64
719.94	25360.90
720.13	25486.64
720.32	25370.32
720.51	25204.35
720.71	25189.61
720.90	24958.19
721.09	25131.36
721.28	24909.12
721.47	25176.34
721.67	25038.96
721.86	25028.55
722.05	25032.98
722.24	24781.90
722.43	25064.93
722.63	24942.38
722.82	24956.22
723.01	25018.15
723.20	24776.82
723.39	24800.08
723.58	24931.64
723.78	24544.91
723.97	24923.12
724.16	24671.88
724.35	24639.03
724.54	24547.12
724.73	24732.34
724.93	24538.27
725.12	24691.21
725.31	24304.88
725.50	24546.46
725.69	24609.29
725.88	24498.13
726.08	24286.45
726.27	24580.70
726.46	24209.45
726.65	24663.93
726.84	24355.59
727.03	24392.13
727.23	24651.07
727.42	24400.40
727.61	24445.54
727.80	24351.00
727.99	24361.41
728.18	24388.03
728.37	24191.18
728.56	24114.18
728.76	24008.75
728.95	24036.27
729.14	24071.50
729.33	24075.84
729.52	24199.62
729.71	24180.29
729.90	24118.68
730.09	23911.51
730.29	24034.47
730.48	23765.04
730.67	24016.12
730.86	23805.10
731.05	24033.81
731.24	23838.36
731.43	23911.51
731.62	23753.24
731.81	23784.78
732.01	24032.26
732.20	23762.50
732.39	23913.72
732.58	23829.92
732.77	23473.00
732.96	23821.32
733.15	23873.66
733.34	23582.03
733.53	23615.78
733.72	23692.21
733.92	23578.18
734.11	23459.65
734.30	23506.50
734.49	23658.30
734.68	23502.24
734.87	23472.26
735.06	23507.73
735.25	23592.03
735.44	23471.52
735.63	23549.76
735.82	23609.72
736.01	23507.40
736.20	23432.37
736.40	23645.44
736.59	23537.55
736.78	23617.83
736.97	23290.98
737.16	23307.20
737.35	23347.83
737.54	23332.84
737.73	23169.33
737.92	23262.22
738.11	23357.25
738.30	23188.58
738.49	23160.81
738.68	23113.70
738.87	23205.12
739.06	23100.43
739.25	23172.85
739.44	23173.83
739.63	23022.69
739.82	23031.37
740.01	23104.04
740.20	23001.47
740.39	23027.44
740.59	23047.02
740.78	23107.31
740.97	22948.72
741.16	22896.21
741.35	22909.40
741.54	22737.20
741.73	22794.30
741.92	22724.02
742.11	22781.69
742.30	22820.11
742.49	22599.17
742.68	22839.28
742.87	22699.44
743.06	22565.83
743.25	22684.37
743.44	22694.12
743.63	22854.68
743.82	22606.05
744.01	22551.49
744.20	22480.63
744.39	22664.87
744.58	22568.12
744.77	22477.69
744.96	22427.55
745.15	22555.92
745.34	22479.08
745.53	22481.95
745.72	22376.93
745.91	22424.27
746.10	22169.10
746.29	22464.82
746.48	22368.32
746.67	22381.02
746.86	22362.26
747.04	22350.63
747.23	22187.12
747.42	22351.45
747.61	22082.92
747.80	22353.66
747.99	21953.57
748.18	22164.35
748.37	22113.15
748.56	21924.24
748.75	22075.38
748.94	22053.18
749.13	22067.35
749.32	21959.55
749.51	22015.91
749.70	21981.75
749.89	21948.90
750.08	22007.39
750.27	21703.47
750.46	21872.88
750.65	21969.87
750.84	21733.45
751.02	21818.24
751.21	21706.67
751.40	21774.25
751.59	21829.38
751.78	21747.46
751.97	21800.30
752.16	21606.32
752.35	21773.51
752.54	21489.75
752.73	21717.81
752.92	21518.91
753.11	21490.56
753.30	21562.90
753.49	21526.61
753.67	21489.83
753.86	21363.67
754.05	21484.01
754.24	21392.92
754.43	21370.55
754.62	21417.49
754.81	21251.20
755.00	21392.59
755.19	21318.45
755.38	21116.93
755.56	21352.94
755.75	21532.02
755.94	21255.13
756.13	21289.54
756.32	21304.20
756.51	21204.34
756.70	21199.84
756.89	21201.97
757.08	21137.82
757.26	21159.29
757.45	21160.02
757.64	20991.52
757.83	21171.49
758.02	21018.06
758.21	20909.60
758.40	20982.59
758.59	20991.35
758.77	20900.09
758.96	20867.16
759.15	21009.13
759.34	20804.33
759.53	20924.10
759.72	20897.64
759.91	20771.24
760.09	20864.95
760.28	21003.31
760.47	20734.37
760.66	20967.10
760.85	20642.30
761.04	20832.92
761.23	20822.93
761.41	20728.47
761.60	20849.47
761.79	20676.62
761.98	20535.64
762.17	20747.15
762.36	20537.85
762.54	20711.03
762.73	20556.53
762.92	20447.25
763.11	20643.12
763.30	20685.88
763.49	20610.51
763.67	20663.43
763.86	20633.29
764.05	20682.19
764.24	20612.89
764.43	20733.31
764.61	20492.96
764.80	20507.62
764.99	20711.76
765.18	20490.58
765.37	20604.86
765.55	20621.57
765.74	20530.48
765.93	20446.26
766.12	20506.39
766.31	20445.20
766.49	20357.30
766.68	20470.43
766.87	20344.77
767.06	20206.41
767.25	20290.21
767.43	20338.38
767.62	20303.97
767.81	20382.20
768.00	20290.46
768.19	20153.73
768.37	20233.69
768.56	20251.54
768.75	20301.60
768.94	20353.94
769.12	20222.05
769.31	20216.32
769.50	20212.55
769.69	20323.80
769.88	20044.62
770.06	20371.23
770.25	20091.88
770.44	20087.87
770.63	20271.94
770.81	20179.62
771.00	20142.67
771.19	20150.87
771.38	20139.72
771.56	20124.65
771.75	19834.58
771.94	20067.23
772.13	19964.34
772.31	19825.81
772.50	20079.51
772.69	19909.12
772.88	20065.59
773.06	19869.39
773.25	20054.04
773.44	20068.37
773.62	20028.15
773.81	20043.88
774.00	19936.89
774.19	19956.14
774.37	19873.08
774.56	20013.57
774.75	19704.57
774.94	19883.24
775.12	19765.60
775.31	19915.10
775.50	19851.45
775.68	19774.69
775.87	19803.94
776.06	19709.57
776.25	19834.25
776.43	19717.11
776.62	19881.19
776.81	19644.94
776.99	19813.44
777.18	19803.78
777.37	19645.02
777.55	19712.11
777.74	19682.13
777.93	19667.38
778.12	19646.98
778.30	19514.44
778.49	19549.50
778.68	19601.35
778.86	19589.48
779.05	19715.55
779.24	19647.97
779.42	19532.38
779.61	19407.04
779.80	19494.78
779.98	19498.22
780.17	19615.94
780.36	19400.74
780.54	19596.60
780.73	19320.29
780.92	19585.38
781.10	19514.19
781.29	19455.95
781.48	19449.56
781.66	19462.17
781.85	19538.20
782.04	19442.51
782.22	19469.06
782.41	19303.74
782.60	19442.02
782.78	19355.68
782.97	19414.42
783.16	19182.50
783.34	19173.98
783.53	19262.95
783.71	19204.87
783.90	19185.04
784.09	19234.11
784.27	19214.70
784.46	19223.55
784.65	19216.09
784.83	19167.76
785.02	19061.35
785.20	19277.94
785.39	18963.70
785.58	19313.00
785.76	19125.16
785.95	19101.98
786.14	19191.60
786.32	19198.48
786.51	19142.45
786.69	19200.77
786.88	19167.84
787.07	19070.28
787.25	19131.47
787.44	19116.40
787.62	19058.48
787.81	19195.94
788.00	19237.23
788.18	19143.10
788.37	19154.73
788.55	19417.53
788.74	19148.02
788.93	19253.77
789.11	19308.25
789.30	19255.25
789.48	19066.67
789.67	19260.74
789.86	19143.35
790.04	19190.29
790.23	19079.20
790.41	19051.27
790.60	19209.95
790.78	19194.05
790.97	19045.62
791.16	19238.70
791.34	19380.83
791.53	19212.57
791.71	19375.75
791.90	19279.82
792.08	19345.69
792.27	19369.77
792.46	19358.63
792.64	19427.60
792.83	19294.65
793.01	19393.20
793.20	19322.67
793.38	19346.34
793.57	19306.45
793.75	19333.81
793.94	19371.00
794.12	19498.71
794.31	19324.14
794.50	19446.86
794.68	19553.51
794.87	19438.99
795.05	19633.06
795.24	19489.86
795.42	19493.71
795.61	19750.77
795.79	19723.33
795.98	19501.82
796.16	19630.60
796.35	19683.85
796.53	19497.32
796.72	19700.80
796.90	19713.83
797.09	19712.76
797.27	19661.07
797.46	19579.65
797.64	19663.37
797.83	19629.53
798.01	19736.93
798.20	19734.47
798.38	19682.95
798.57	19848.59
798.75	19790.51
798.94	19633.30
799.12	20075.58
799.31	19772.48
799.49	19845.96
799.68	19688.93
799.86	19679.51
800.05	19678.93
800.23	19626.01
800.42	19540.08
800.60	19715.80
800.79	19529.02
800.97	19620.36
801.16	19714.57
801.34	19667.46
801.53	19579.73
801.71	19778.05
801.90	19553.43
802.08	19794.68
802.27	19704.74
802.45	19623.80
802.64	19679.75
802.82	19827.61
803.00	19579.89
803.19	19708.09
803.37	19915.10
803.56	19697.36
803.74	19708.50
803.93	19754.79
804.11	19594.39
804.30	19481.43
804.48	19594.64
804.67	19655.58
804.85	19560.07
805.03	19703.92
805.22	19501.66
805.40	19462.26
805.59	19525.33
805.77	19566.05
805.96	19449.80
806.14	19495.02
806.32	19559.66
806.51	19817.37
806.69	19593.08
806.88	19568.59
807.06	19604.14
807.25	19558.92
807.43	19643.13
807.61	19685.08
807.80	19566.70
807.98	19735.78
808.17	19631.91
808.35	19546.14
808.53	19737.09
808.72	19564.25
808.90	19584.97
809.09	19574.16
809.27	19672.38
809.45	19519.93
809.64	19635.27
809.82	19474.22
810.01	19511.74
810.19	19526.97
810.37	19451.44
810.56	19470.04
810.74	19568.18
810.93	19386.97
811.11	19523.61
811.29	19414.50
811.48	19456.69
811.66	19434.24
811.84	19339.13
812.03	19349.45
812.21	19379.60
812.40	19351.91
812.58	19403.11
812.76	19190.12
812.95	19417.86
813.13	19179.88
813.31	19270.24
813.50	19347.57
813.68	19265.65
813.86	19372.72
814.05	19375.75
814.23	19074.13
814.42	19186.19
814.60	19104.19
814.78	19124.67
814.97	19120.08
815.15	19115.58
815.33	19148.84
815.52	19094.36
815.70	19088.30
815.88	19101.81
816.07	18971.97
816.25	19028.82
816.43	19056.43
816.62	18927.08
816.80	18927.25
816.98	18894.48
817.17	18791.59
817.35	18865.56
817.53	18807.07
817.72	18983.11
817.90	18750.79
818.08	18785.61
818.26	18897.67
818.45	18766.52
818.63	18894.81
818.81	18854.99
819.00	18699.67
819.18	18865.15
819.36	18791.26
819.55	18880.14
819.73	18686.08
819.91	18830.50
820.09	18727.28
820.28	18947.48
820.46	18747.93
820.64	18941.58
820.83	18691.40
821.01	18798.80
821.19	18695.82
821.38	18739.49
821.56	18596.62
821.74	18758.25
821.92	18568.28
822.11	18728.43
822.29	18443.60
822.47	18523.14
822.65	18555.66
822.84	18619.23
823.02	18425.33
823.20	18694.51
823.39	18451.38
823.57	18520.93
823.75	18486.77
823.93	18463.59
824.12	18511.18
824.30	18403.29
824.48	18434.34
824.66	18570.33
824.85	18155.00
825.03	18425.25
825.21	18483.33
825.39	18396.58
825.58	18527.89
825.76	18413.37
825.94	18401.74
826.12	18425.74
826.31	18250.60
826.49	18299.91
826.67	18302.86
826.85	18218.07
827.03	18266.24
827.22	18371.34
827.40	18184.08
827.58	18227.00
827.76	18235.77
827.95	18187.68
828.13	18120.18
828.31	18178.84
828.49	18237.98
828.67	18144.18
828.86	18068.08
829.04	18150.66
829.22	18132.88
829.40	18046.78
829.58	18061.04
829.77	18055.88
829.95	18056.12
830.13	18023.19
830.31	17967.81
830.49	18044.32
830.68	18020.49
830.86	17878.19
831.04	17853.62
831.22	17854.68
831.40	17802.99
831.59	17861.48
831.77	17732.05
831.95	17944.63
832.13	17735.25
832.31	17858.21
832.50	17942.17
832.68	17779.07
832.86	17858.45
833.04	17978.05
833.22	17739.67
833.40	18013.61
833.59	17796.03
833.77	17967.57
833.95	17609.91
834.13	18030.32
834.31	17765.64
834.49	17811.92
834.67	17818.56
834.86	17778.50
835.04	17724.43
835.22	17800.13
835.40	17653.33
835.58	17624.98
835.76	17628.18
835.95	17679.95
836.13	17556.25
836.31	17416.42
836.49	17677.57
836.67	17580.34
836.85	17586.89
837.03	17587.63
837.21	17641.61
837.40	17539.13
837.58	17371.69
837.76	17529.96
837.94	17507.51
838.12	17605.16
838.30	17473.19
838.48	17539.46
838.66	17449.92
838.85	17456.97
839.03	17462.46
839.21	17426.49
839.39	17359.57
839.57	17464.42
839.75	17348.51
839.93	17380.46
840.11	17404.21
840.29	17354.57
840.47	17418.79
840.66	17415.43
840.84	17342.77
841.02	17347.93
841.20	17332.86
841.38	17313.77
841.56	17278.14
841.74	17403.23
841.92	17122.82
842.10	17161.98
842.28	17187.62
842.46	17041.56
842.65	16962.01
842.83	17130.36
843.01	17178.36
843.19	16994.37
843.37	17064.74
843.55	16945.38
843.73	17054.34
843.91	17032.14
844.09	16973.81
844.27	17100.70
844.45	16893.94
844.63	16937.44
844.81	16937.03
844.99	16980.04
845.17	16909.67
845.35	16978.81
845.54	16848.39
845.72	16901.39
845.90	16866.33
846.08	16887.55
846.26	16737.80
846.44	16952.10
846.62	16705.61
846.80	16769.51
846.98	16749.44
847.16	16719.37
847.34	16728.71
847.52	16759.76
847.70	16655.06
847.88	16769.42
848.06	16664.98
848.24	16703.40
848.42	16654.00
848.60	16574.46
848.78	16657.85
848.96	16612.22
849.14	16590.92
849.32	16690.13
849.50	16546.36
849.68	16746.57
849.86	16624.51
850.04	16499.42
850.22	16505.56
850.40	16394.97
850.58	16515.72
850.76	16742.14
850.94	16242.85
851.12	16493.85
851.30	16349.18
851.48	16451.09
851.66	16332.71
851.84	16306.50
852.02	16291.10
852.20	16391.78
852.38	16239.16
852.56	16384.16
852.74	16279.55
852.92	16265.62
853.10	16200.01
853.28	16357.21
853.46	16082.94
853.64	16228.43
853.82	16164.13
854.00	16178.87
854.18	16133.90
854.36	16102.28
854.54	16214.92
854.72	16077.70
854.90	16016.34
855.07	16045.84
855.25	16076.15
855.43	16058.37
855.61	16005.53
855.79	15961.46
855.97	15992.26
856.15	15950.48
856.33	15878.97
856.51	16006.92
856.69	15798.69
856.87	15947.86
857.05	15830.31
857.23	15902.89
857.41	15815.07
857.59	15862.99
857.77	15811.88
857.94	15821.87
858.12	15933.85
858.30	15834.48
858.48	15811.79
858.66	15724.96
858.84	15890.03
859.02	15689.08
859.20	15633.46
859.38	15818.10
859.56	15781.16
859.74	15730.20
859.92	15743.39
860.09	15630.92
860.27	15751.58
860.45	15598.89
860.63	15606.59
860.81	15686.21
860.99	15580.13
861.17	15410.39
861.35	15126.87
861.53	15089.35
861.70	15068.71
861.88	15401.30
862.06	15411.46
862.24	15110.08
862.42	15153.41
862.60	15405.64
862.78	15383.85
862.96	15418.26
863.14	15305.13
863.31	15350.75
863.49	15318.64
863.67	15288.74
863.85	15285.38
864.03	15371.89
864.21	15304.80
864.39	15339.61
864.56	15207.48
864.74	15291.45
864.92	15195.85
865.10	15094.43
865.28	15102.54
865.46	15212.89
865.64	14916.67
865.81	15059.45
865.99	14836.47
866.17	14977.29
866.35	14889.55
866.53	14906.02
866.71	14877.43
866.88	14877.51
867.06	14805.26
867.24	14875.79
867.42	14806.81
867.60	14856.13
867.78	14788.30
867.95	14925.76
868.13	14762.25
868.31	14896.27
868.49	14820.00
868.67	14708.76
868.84	14783.96
869.02	14773.23
869.20	14539.76
869.38	14702.45
869.56	14576.95
869.73	14526.16
869.91	14611.93
870.09	14601.03
870.27	14521.25
870.45	14546.39
870.62	14414.67
870.80	14571.30
870.98	14491.92
871.16	14531.89
871.34	14485.61
871.51	14552.95
871.69	14420.16
871.87	14451.94
872.05	14453.09
872.23	14462.76
872.40	14368.30
872.58	14458.74
872.76	14349.13
872.94	14358.96
873.11	14335.04
873.29	14210.86
873.47	14248.29
873.65	14189.47
873.83	14106.16
874.00	14108.87
874.18	14104.12
874.36	14069.22
874.54	14095.35
874.71	14021.46
874.89	13933.15
875.07	14028.67
875.25	13963.71
875.42	14021.46
875.60	14006.80
875.78	14117.80
875.96	13956.42
876.13	14072.00
876.31	13897.11
876.49	13931.18
876.66	13845.50
876.84	14010.73
877.02	13878.02
877.20	13887.69
877.37	13929.55
877.55	13883.51
877.73	13803.64
877.91	13814.94
878.08	13895.88
878.26	13896.45
878.44	13852.21
878.61	13864.67
878.79	13786.19
878.97	13782.83
879.15	13829.61
879.32	13810.35
879.50	13840.75
879.68	13949.53
879.85	13784.47
880.03	13907.84
880.21	13826.90
880.38	13909.80
880.56	13762.10
880.74	13924.96
880.92	13758.99
881.09	13897.93
881.27	13845.17
881.45	13830.59
881.62	13798.39
881.80	13751.13
881.98	13711.64
882.15	13855.00
882.33	13734.58
882.51	13817.81
882.68	13652.58
882.86	13883.02
883.04	13699.76
883.21	13719.18
883.39	13824.20
883.57	13687.15
883.74	13720.24
883.92	13758.17
884.10	13690.18
884.27	13697.96
884.45	13677.40
884.63	13797.33
884.80	13727.21
884.98	13782.17
885.16	13691.74
885.33	13766.45
885.51	13772.10
885.69	13737.94
885.86	13750.88
886.04	13783.73
886.21	13698.13
886.39	13812.48
886.57	13636.44
886.74	13846.56
886.92	13774.56
887.10	13807.81
887.27	13771.85
887.45	13796.92
887.62	13804.70
887.80	13802.16
887.98	13910.05
888.15	13858.36
888.33	13779.39
888.51	13912.26
888.68	13778.16
888.86	13800.61
889.03	13788.81
889.21	13798.80
889.39	13852.71
889.56	13839.85
889.74	13865.73
889.91	13830.51
890.09	13798.56
890.27	13845.74
890.44	13797.25
890.62	13772.34
890.79	13796.02
890.97	13845.42
891.14	13735.97
891.32	13776.36
891.50	13682.72
891.67	13792.66
891.85	13765.38
892.02	13764.07
892.20	13879.49
892.38	13795.85
892.55	13697.55
892.73	13814.04
892.90	13666.91
893.08	13696.00
893.25	13697.31
893.43	13790.94
893.60	13649.71
893.78	13840.91
893.96	13712.38
894.13	13835.09
894.31	13891.45
894.48	13764.48
894.66	13833.05
894.83	13870.97
895.01	13854.26
895.18	13913.24
895.36	13812.81
895.53	13904.89
895.71	13754.81
895.89	13812.57
896.06	13692.23
896.24	13787.25
896.41	13737.77
896.59	13811.58
896.76	13587.54
896.94	13743.26
897.11	13775.70
897.29	13814.45
897.46	13723.77
897.64	13750.31
897.81	13746.54
897.99	13646.76
898.16	13840.09
898.34	13828.87
898.51	13798.64
898.69	13704.52
898.86	13759.73
899.04	13717.05
899.21	13711.89
899.39	13726.80
899.56	13664.54
899.74	13780.29
899.91	13655.69
900.09	13593.76
900.26	13593.02
900.44	13523.72
900.61	13555.26
900.79	13659.05
900.96	13597.04
901.14	13568.20
901.31	13533.80
901.49	13501.68
901.66	13526.34
901.84	13535.76
902.01	13422.06
902.19	13494.07
902.36	13393.72
902.54	13402.64
902.71	13386.67
902.88	13408.79
903.06	13218.74
903.23	13399.94
903.41	13241.43
903.58	13215.54
903.76	13157.30
903.93	13209.56
904.11	13246.59
904.28	13170.98
904.45	13113.06
904.63	13104.38
904.80	12975.52
904.98	13040.48
905.15	12951.76
905.33	13036.06
905.50	12948.32
905.68	13020.00
905.85	12943.82
906.02	12976.75
906.20	13027.54
906.37	12888.36
906.55	12884.75
906.72	12984.78
906.90	12846.25
907.07	12805.87
907.24	12867.55
907.42	12787.93
907.59	12737.22
907.77	12744.35
907.94	12686.02
908.11	12739.27
908.29	12706.25
908.46	12713.13
908.64	12617.45
908.81	12644.32
908.98	12517.10
909.16	12652.76
909.33	12516.45
909.51	12532.67
909.68	12469.51
909.85	12432.89
910.03	12443.29
910.20	12318.20
910.37	12305.75
910.55	12310.09
910.72	12243.74
910.90	12174.03
911.07	12197.13
911.24	12154.94
911.42	12243.25
911.59	12092.35
911.76	12137.41
911.94	12103.25
912.11	12096.37
912.29	12102.27
912.46	12049.18
912.63	12070.89
912.81	11979.55
912.98	11990.86
913.15	11917.62
913.33	11956.37
913.50	11943.18
913.67	11843.16
913.85	11791.96
914.02	11779.18
914.19	11754.36
914.37	11688.66
914.54	11699.39
914.71	11671.13
914.89	11621.24
915.06	11646.88
915.23	11545.22
915.41	11577.33
915.58	11526.79
915.75	11486.07
915.93	11483.62
916.10	11480.83
916.27	11394.08
916.45	11426.76
916.62	11303.80
916.79	11417.02
916.97	11331.74
917.14	11314.86
917.31	11248.76
917.49	11272.27
917.66	11242.61
917.83	11230.73
918.00	11172.90
918.18	11154.14
918.35	11117.03
918.52	11162.41
918.70	11081.72
918.87	11047.81
919.04	11042.24
919.21	10962.04
919.39	10932.38
919.56	10989.73
919.73	10889.95
919.91	10905.60
920.08	10862.02
920.25	10826.38
920.42	10932.14
920.60	10770.68
920.77	10771.17
920.94	10846.29
921.11	10685.32
921.29	10742.01
921.46	10604.05
921.63	10713.33
921.81	10569.89
921.98	10577.51
922.15	10531.31
922.32	10566.86
922.50	10482.49
922.67	10486.50
922.84	10410.32
923.01	10373.29
923.19	10353.30
923.36	10362.15
923.53	10240.83
923.70	10325.12
923.87	10269.42
924.05	10288.01
924.22	10214.12
924.39	10282.52
924.56	10133.35
924.74	10196.75
924.91	10141.71
925.08	10144.33
925.25	10114.59
925.43	10060.61
925.60	9965.50
925.77	10004.08
925.94	9981.64
926.11	9916.35
926.29	9903.16
926.46	9902.75
926.63	9861.30
926.80	9832.13
926.97	9788.80
927.15	9799.94
927.32	9680.75
927.49	9668.38
927.66	9667.23
927.83	9697.71
928.01	9605.22
928.18	9616.77
928.35	9540.42
928.52	9605.14
928.69	9474.97
928.87	9510.60
929.04	9475.79
929.21	9511.42
929.38	9441.87
929.55	9462.68
929.72	9378.39
929.90	9412.14
930.07	9394.93
930.24	9370.93
930.41	9354.30
930.58	9324.40
930.75	9374.04
930.93	9356.51
931.10	9310.39
931.27	9241.42
931.44	9238.14
931.61	9232.16
931.78	9195.13
931.95	9167.20
932.13	9106.58
932.30	9168.26
932.47	9029.17
932.64	9070.86
932.81	9051.45
932.98	9039.65
933.15	9010.16
933.33	8956.01
933.50	9019.25
933.67	8911.04
933.84	8924.80
934.01	8929.23
934.18	8921.77
934.35	8945.61
934.52	8899.49
934.70	8905.96
934.87	8879.75
935.04	8840.26
935.21	8881.55
935.38	8824.53
935.55	8762.11
935.72	8793.98
935.89	8688.38
936.06	8711.40
936.24	8649.23
936.41	8714.19
936.58	8653.73
936.75	8614.74
936.92	8635.63
937.09	8584.84
937.26	8509.64
937.43	8535.61
937.60	8519.14
937.77	8485.23
937.94	8472.61
938.12	8491.70
938.29	8396.75
938.46	8434.93
938.63	8370.95
938.80	8440.33
938.97	8326.55
939.14	8339.00
939.31	8305.58
939.48	8342.03
939.65	8224.31
939.82	8251.10
939.99	8269.45
940.16	8204.08
940.33	8196.30
940.50	8198.67
940.67	8157.06
940.85	8157.88
941.02	8131.50
941.19	8139.37
941.36	8127.00
941.53	8142.72
941.70	8049.42
941.87	8010.26
942.04	8015.09
942.21	8020.66
942.38	7982.98
942.55	7933.67
942.72	7958.65
942.89	7944.81
943.06	7876.57
943.23	7897.05
943.40	7848.31
943.57	7900.00
943.74	7851.91
943.91	7851.50
944.08	7837.58
944.25	7881.89
944.42	7757.21
944.59	7759.43
944.76	7769.01
944.93	7765.24
945.10	7739.60
945.27	7757.13
945.44	7663.83
945.61	7703.07
945.78	7638.27
945.95	7665.87
946.12	7636.22
946.29	7654.16
946.46	7620.33
946.63	7595.51
946.80	7602.63
946.97	7560.94
947.14	7508.51
947.31	7573.55
947.48	7518.58
947.65	7461.90
947.82	7464.76
947.99	7528.01
948.16	7433.55
948.33	7496.55
948.50	7373.51
948.67	7405.62
948.84	7361.38
949.01	7354.42
949.18	7333.04
949.35	7354.01
949.52	7293.80
949.68	7291.83
949.85	7269.80
950.02	7251.94
950.19	7246.86
950.36	7226.46
950.53	7189.27
950.70	7170.10
950.87	7172.15
951.04	7223.19
951.21	7172.40
951.38	7125.37
951.55	7137.91
951.72	7142.41
951.89	7107.27
952.06	7103.50
952.23	7073.03
952.39	7081.63
952.56	7017.32
952.73	7056.07
952.90	6975.55
953.07	7019.45
953.24	6966.70
953.41	6976.61
953.58	6904.77
953.75	6982.18
953.92	6884.53
954.09	6870.61
954.25	6847.18
954.42	6895.35
954.59	6811.30
954.76	6812.20
954.93	6808.92
955.10	6829.48
955.27	6775.42
955.44	6776.81
955.61	6765.42
955.77	6773.53
955.94	6773.29
956.11	6744.78
956.28	6737.65
956.45	6713.81
956.62	6725.61
956.79	6745.35
956.96	6704.15
957.12	6704.97
957.29	6660.16
957.46	6662.70
957.63	6608.39
957.80	6609.61
957.97	6611.01
958.14	6671.79
958.30	6571.36
958.47	6557.35
958.64	6549.98
958.81	6596.59
958.98	6533.27
959.15	6503.86
959.32	6542.03
959.48	6527.37
959.65	6434.14
959.82	6470.93
959.99	6426.53
960.16	6457.98
960.33	6424.72
960.49	6410.14
960.66	6387.86
960.83	6405.55
961.00	6368.53
961.17	6355.58
961.33	6329.45
961.50	6343.21
961.67	6330.60
961.84	6326.91
962.01	6304.55
962.18	6308.48
962.34	6292.59
962.51	6295.13
962.68	6272.19
962.85	6310.77
963.02	6229.59
963.18	6253.51
963.35	6224.10
963.52	6205.67
963.69	6202.31
963.86	6201.66
964.02	6140.47
964.19	6176.02
964.36	6147.51
964.53	6146.20
964.69	6107.86
964.86	6147.67
965.03	6042.41
965.20	6133.34
965.37	6046.50
965.53	6062.23
965.70	6018.41
965.87	6030.69
966.04	6016.85
966.20	5982.44
966.37	5983.26
966.54	5950.58
966.71	5968.27
966.87	5919.94
967.04	5932.72
967.21	5922.89
967.38	5911.83
967.54	5908.80
967.71	5876.85
967.88	5892.99
968.05	5886.60
968.21	5852.60
968.38	5838.51
968.55	5840.81
968.72	5805.01
968.88	5776.83
969.05	5818.28
969.22	5784.61
969.39	5770.27
969.55	5774.04
969.72	5735.30
969.89	5731.45
970.05	5761.10
970.22	5753.07
970.39	5705.40
970.56	5726.37
970.72	5702.86
970.89	5699.91
971.06	5684.26
971.22	5677.79
971.39	5680.74
971.56	5693.68
971.73	5626.59
971.89	5676.97
972.06	5612.34
972.23	5670.17
972.39	5609.71
972.56	5607.58
972.73	5590.22
972.89	5580.55
973.06	5603.08
973.23	5585.55
973.39	5553.93
973.56	5587.35
973.73	5532.79
973.89	5562.20
974.06	5546.72
974.23	5518.87
974.39	5530.25
974.56	5523.37
974.73	5482.17
974.89	5484.30
975.06	5447.11
975.23	5453.90
975.39	5393.12
975.56	5447.60
975.73	5441.45
975.89	5417.12
976.06	5399.51
976.23	5379.44
976.39	5363.55
976.56	5383.54
976.73	5385.09
976.89	5350.52
977.06	5308.42
977.23	5312.59
977.39	5326.19
977.56	5331.03
977.72	5273.27
977.89	5298.67
978.06	5270.16
978.22	5271.88
978.39	5260.17
978.56	5247.31
978.72	5247.47
978.89	5235.84
979.05	5235.18
979.22	5240.18
979.39	5207.41
979.55	5224.86
979.72	5195.86
979.88	5190.62
980.05	5153.51
980.22	5192.91
980.38	5166.86
980.55	5155.88
980.71	5123.77
980.88	5163.75
981.05	5143.76
981.21	5121.56
981.38	5126.80
981.54	5134.01
981.71	5099.03
981.88	5072.49
982.04	5088.14
982.21	5070.03
982.37	5039.15
982.54	5057.58
982.70	5042.43
982.87	5033.99
983.04	4991.23
983.20	5048.49
983.37	4988.44
983.53	5029.40
983.70	5009.09
983.86	5014.41
984.03	4979.19
984.20	4998.93
984.36	4970.17
984.53	4990.98
984.69	4955.76
984.86	4944.53
985.02	4932.41
985.19	4944.86
985.35	4926.68
985.52	4884.90
985.68	4894.48
985.85	4889.73
986.02	4899.97
986.18	4884.08
986.35	4879.65
986.51	4873.26
986.68	4851.72
986.84	4851.23
987.01	4851.72
987.17	4853.85
987.34	4840.82
987.50	4824.93
987.67	4813.14
987.83	4838.12
988.00	4821.57
988.16	4799.29
988.33	4776.44
988.49	4815.27
988.66	4780.53
988.82	4800.52
988.99	4747.68
989.15	4787.82
989.32	4739.41
989.48	4749.40
989.65	4708.36
989.81	4718.93
989.98	4714.67
990.14	4678.05
990.31	4716.47
990.47	4690.42
990.64	4656.34
990.80	4688.21
990.97	4654.71
991.13	4653.39
991.30	4655.52
991.46	4637.50
991.63	4605.23
991.79	4653.72
991.95	4591.14
992.12	4630.62
992.28	4588.68
992.45	4608.26
992.61	4592.77
992.78	4579.18
992.94	4579.42
993.11	4590.64
993.27	4545.02
993.44	4555.34
993.60	4550.59
993.76	4569.43
993.93	4534.86
994.09	4566.31
994.26	4532.48
994.42	4534.94
994.59	4519.29
994.75	4534.37
994.91	4511.51
995.08	4489.64
995.24	4489.31
995.41	4495.70
995.57	4456.05
995.74	4453.92
995.90	4442.29
996.06	4456.13
996.23	4453.59
996.39	4430.00
996.56	4411.49
996.72	4437.54
996.88	4410.75
997.05	4427.54
997.21	4413.37
997.38	4407.23
997.54	4370.37
997.70	4364.47
997.87	4382.24
998.03	4380.11
998.20	4355.13
998.36	4370.12
998.52	4316.30
998.69	4375.44
998.85	4335.47
999.02	4346.04
999.18	4326.78
999.34	4346.12
999.51	4306.63
999.67	4335.06
999.83	4288.77
1000.00	4299.26
1000.16	4287.22
1000.33	4283.53
1000.49	4282.14
1000.65	4290.90
1000.82	4305.08
1000.98	4270.83
1001.14	4265.35
1001.31	4277.22
1001.47	4276.08
1001.63	4258.55
1001.80	4241.26
1001.96	4238.80
1002.12	4230.20
1002.29	4244.70
1002.45	4206.77
1002.61	4215.78
1002.78	4210.62
1002.94	4204.73
1003.10	4192.52
1003.27	4202.68
1003.43	4161.14
1003.59	4181.13
1003.76	4160.65
1003.92	4180.97
1004.08	4160.08
1004.25	4175.97
1004.41	4158.28
1004.57	4143.29
1004.74	4129.36
1004.90	4177.36
1005.06	4134.44
1005.23	4134.85
1005.39	4116.50
1005.55	4119.78
1005.71	4121.82
1005.88	4097.41
1006.04	4103.72
1006.20	4081.19
1006.37	4072.02
1006.53	4088.16
1006.69	4081.36
1006.85	4090.45
1007.02	4056.94
1007.18	4064.89
1007.34	4045.72
1007.51	4067.27
1007.67	4062.27
1007.83	4034.91
1007.99	4030.32
1008.16	4052.44
1008.32	4027.70
1008.48	4062.27
1008.64	4013.20
1008.81	4056.37
1008.97	4031.63
1009.13	4021.96
1009.29	4014.43
1009.46	4034.25
1009.62	4007.96
1009.78	3992.23
1009.95	4013.20
1010.11	4003.53
1010.27	3974.70
1010.43	3985.76
1010.59	3977.56
1010.76	3952.01
1010.92	3947.50
1011.08	3957.49
1011.24	3957.49
1011.41	3967.98
1011.57	3945.62
1011.73	3946.03
1011.89	3899.50
1012.06	3942.09
1012.22	3902.04
1012.38	3951.43
1012.54	3905.23
1012.70	3908.59
1012.87	3885.90
1013.03	3920.96
1013.19	3905.80
1013.35	3923.01
1013.51	3861.73
1013.68	3896.55
1013.84	3900.48
1014.00	3883.69
1014.16	3850.75
1014.32	3888.76
1014.49	3854.85
1014.65	3879.10
1014.81	3846.00
1014.97	3870.01
1015.13	3840.92
1015.30	3855.75
1015.46	3850.18
1015.62	3840.92
1015.78	3841.58
1015.94	3854.77
1016.10	3803.98
1016.27	3815.28
1016.43	3801.36
1016.59	3815.45
1016.75	3790.54
1016.91	3825.52
1017.07	3800.29
1017.24	3813.56
1017.40	3769.33
1017.56	3812.50
1017.72	3763.59
1017.88	3788.99
1018.04	3766.79
1018.21	3778.91
1018.37	3765.80
1018.53	3769.82
1018.69	3775.14
1018.85	3754.42
1019.01	3743.03
1019.17	3735.50
1019.34	3746.88
1019.50	3761.05
1019.66	3709.36
1019.82	3712.31
1019.98	3716.49
1020.14	3733.04
1020.30	3726.16
1020.46	3714.11
1020.63	3701.01
1020.79	3693.31
1020.95	3710.59
1021.11	3725.26
1021.27	3697.16
1021.43	3708.95
1021.59	3711.41
1021.75	3691.18
1021.91	3682.66
1022.07	3682.33
1022.24	3663.90
1022.40	3680.20
1022.56	3664.64
1022.72	3686.51
1022.88	3683.23
1023.04	3693.55
1023.20	3634.49
1023.36	3668.16
1023.52	3666.03
1023.68	3648.09
1023.84	3645.14
1024.01	3651.36
1024.17	3620.40
1024.33	3645.79
1024.49	3638.91
1024.65	3619.99
1024.81	3640.06
1024.97	3643.58
1025.13	3619.91
1025.29	3625.48
1025.45	3618.92
1025.61	3621.55
1025.77	3612.37
1025.93	3630.80
1026.09	3584.11
1026.25	3621.46
1026.41	3585.50
1026.57	3579.28
1026.73	3587.30
1026.90	3587.22
1027.06	3608.52
1027.22	3617.20
1027.38	3589.76
1027.54	3596.81
1027.70	3578.87
1027.86	3579.69
1028.02	3579.19
1028.18	3567.81
1028.34	3571.66
1028.50	3567.97
1028.66	3571.25
1028.82	3597.38
1028.98	3568.46
1029.14	3544.62
1029.30	3562.48
1029.46	3565.84
1029.62	3545.69
1029.78	3540.77
1029.94	3534.88
1030.10	3560.11
1030.26	3514.07
1030.42	3541.76
1030.58	3533.57
1030.74	3545.69
1030.90	3512.76
1031.06	3526.19
1031.22	3508.58
1031.38	3530.45
1031.54	3522.10
1031.70	3529.31
1031.86	3518.90
1032.02	3505.88
1032.18	3502.85
1032.34	3515.63
1032.50	3488.92
1032.66	3513.90
1032.82	3464.51
1032.98	3498.75
1033.14	3481.79
1033.30	3484.74
1033.45	3477.12
1033.61	3508.25
1033.77	3468.77
1033.93	3493.02
1034.09	3480.40
1034.25	3497.11
1034.41	3479.74
1034.57	3481.22
1034.73	3467.70
1034.89	3468.28
1035.05	3477.78
1035.21	3469.50
1035.37	3445.91
1035.53	3460.25
1035.69	3449.84
1035.85	3481.22
1036.01	3440.51
1036.16	3463.28
1036.32	3451.07
1036.48	3448.12
1036.64	3438.62
1036.80	3456.56
1036.96	3429.77
1037.12	3425.27
1037.28	3439.52
1037.44	3438.79
1037.60	3432.07
1037.76	3427.81
1037.91	3424.86
1038.07	3440.59
1038.23	3433.30
1038.39	3426.17
1038.55	3416.01
1038.71	3434.69
1038.87	3416.42
1039.03	3438.13
1039.19	3407.33
1039.35	3412.65
1039.50	3426.25
1039.66	3427.81
1039.82	3412.08
1039.98	3425.27
1040.14	3412.82
1040.30	3422.97
1040.46	3386.19
1040.62	3386.11
1040.77	3395.70
1040.93	3429.28
1041.09	3404.46
1041.25	3403.31
1041.41	3391.93
1041.57	3417.32
1041.73	3417.32
1041.88	3417.32

