SpectraSuite Data File
++++++++++++++++++++++++++++++++++++
Date: Tue Sep 20 11:50:44 EDT 2022
User: Laboratoire
Dark Spectrum Present: No
Reference Spectrum Present: No
Number of Sampled Component Spectra: 1
Spectrometers: FLMT00174
Integration Time (usec): 15000 (FLMT00174)
Spectra Averaged: 25 (FLMT00174)
Boxcar Smoothing: 0 (FLMT00174)
Correct for Electrical Dark: No (FLMT00174)
Strobe/Lamp Enabled: No (FLMT00174)
Correct for Detector Non-linearity: No (FLMT00174)
Correct for Stray Light: No (FLMT00174)
Number of Pixels in Processed Spectrum: 3648
>>>>>Begin Processed Spectral Data<<<<<
345.74	3161.57
345.96	3161.57
346.18	3161.57
346.39	3152.81
346.61	3209.99
346.83	3207.36
347.05	3209.00
347.27	3199.42
347.49	3199.25
347.71	3214.49
347.93	3224.65
348.15	3211.54
348.36	3188.52
348.58	3203.19
348.80	3218.92
349.02	3204.42
349.24	3217.69
349.46	3317.55
349.68	3346.38
349.90	3335.98
350.11	3331.47
350.33	3336.55
350.55	3307.31
350.77	3359.98
350.99	3310.42
351.21	3351.54
351.43	3315.83
351.65	3342.37
351.86	3316.07
352.08	3338.60
352.30	3295.84
352.52	3334.99
352.74	3313.78
352.96	3338.03
353.18	3340.40
353.39	3344.58
353.61	3324.75
353.83	3337.04
354.05	3350.56
354.27	3350.15
354.49	3320.41
354.70	3334.91
354.92	3324.75
355.14	3327.87
355.36	3309.52
355.58	3349.33
355.80	3346.63
356.02	3327.38
356.23	3329.75
356.45	3340.97
356.67	3339.75
356.89	3345.56
357.11	3348.51
357.33	3348.43
357.54	3323.03
357.76	3333.03
357.98	3323.61
358.20	3349.49
358.42	3327.54
358.63	3319.43
358.85	3336.63
359.07	3362.11
359.29	3325.98
359.51	3317.79
359.73	3332.62
359.94	3329.42
360.16	3323.61
360.38	3352.61
360.60	3327.79
360.82	3332.78
361.03	3338.93
361.25	3342.37
361.47	3349.74
361.69	3356.78
361.91	3331.14
362.12	3334.91
362.34	3341.06
362.56	3361.37
362.78	3337.45
363.00	3366.78
363.21	3321.89
363.43	3368.09
363.65	3321.23
363.87	3333.93
364.09	3358.34
364.30	3339.01
364.52	3321.64
364.74	3364.40
364.96	3332.70
365.17	3341.63
365.39	3341.79
365.61	3325.41
365.83	3329.75
366.05	3323.61
366.26	3325.98
366.48	3358.67
366.70	3383.00
366.92	3366.45
367.13	3355.88
367.35	3330.57
367.57	3361.04
367.79	3362.76
368.01	3341.96
368.22	3368.83
368.44	3334.09
368.66	3354.16
368.88	3347.94
369.09	3355.64
369.31	3350.80
369.53	3362.60
369.75	3346.14
369.96	3351.95
370.18	3371.78
370.40	3361.37
370.62	3370.22
370.83	3349.00
371.05	3383.98
371.27	3365.14
371.49	3338.76
371.70	3348.84
371.92	3344.25
372.14	3349.33
372.36	3347.36
372.57	3368.01
372.79	3373.00
373.01	3369.89
373.22	3368.01
373.44	3356.13
373.66	3357.60
373.88	3363.17
374.09	3348.10
374.31	3347.12
374.53	3355.56
374.75	3361.13
374.96	3365.71
375.18	3396.52
375.40	3358.75
375.61	3363.09
375.83	3361.95
376.05	3369.15
376.27	3378.25
376.48	3353.84
376.70	3365.47
376.92	3375.95
377.13	3361.13
377.35	3374.40
377.57	3380.70
377.79	3375.46
378.00	3373.74
378.22	3385.05
378.44	3363.75
378.65	3395.78
378.87	3391.76
379.09	3394.71
379.30	3363.01
379.52	3391.03
379.74	3365.47
379.96	3378.00
380.17	3365.47
380.39	3386.52
380.61	3384.72
380.82	3395.78
381.04	3390.21
381.26	3399.05
381.47	3401.02
381.69	3421.09
381.91	3415.77
382.12	3402.66
382.34	3426.99
382.56	3407.25
382.77	3410.11
382.99	3431.33
383.21	3407.57
383.42	3421.34
383.64	3408.64
383.86	3425.68
384.07	3430.59
384.29	3415.60
384.51	3411.34
384.72	3434.44
384.94	3411.75
385.16	3418.72
385.37	3415.52
385.59	3422.24
385.81	3427.56
386.02	3404.13
386.24	3446.49
386.46	3439.85
386.67	3454.84
386.89	3441.24
387.11	3461.89
387.32	3453.86
387.54	3442.31
387.76	3450.83
387.97	3460.08
388.19	3477.53
388.40	3456.40
388.62	3466.23
388.84	3470.00
389.05	3467.37
389.27	3474.42
389.49	3480.48
389.70	3469.50
389.92	3487.94
390.14	3480.65
390.35	3495.15
390.57	3490.89
390.78	3495.06
391.00	3487.45
391.22	3503.17
391.43	3482.78
391.65	3498.26
391.86	3512.76
392.08	3519.72
392.30	3507.02
392.51	3508.99
392.73	3543.31
392.95	3517.75
393.16	3508.42
393.38	3543.89
393.59	3518.08
393.81	3557.08
394.03	3534.96
394.24	3553.47
394.46	3545.44
394.67	3574.36
394.89	3570.35
395.11	3574.85
395.32	3594.76
395.54	3591.15
395.75	3572.31
395.97	3572.48
396.19	3557.57
396.40	3597.22
396.62	3608.60
396.83	3600.90
397.05	3605.65
397.26	3606.23
397.48	3608.36
397.70	3618.27
397.91	3635.80
398.13	3619.91
398.34	3614.91
398.56	3640.63
398.78	3628.59
398.99	3681.10
399.21	3653.58
399.42	3684.95
399.64	3654.56
399.85	3679.22
400.07	3676.10
400.29	3694.70
400.50	3673.65
400.72	3704.37
400.93	3675.86
401.15	3702.24
401.36	3695.11
401.58	3731.97
401.79	3724.27
402.01	3733.61
402.23	3703.79
402.44	3772.85
402.66	3744.75
402.87	3753.44
403.09	3745.90
403.30	3771.46
403.52	3739.59
403.73	3764.82
403.95	3762.04
404.16	3788.25
404.38	3795.30
404.60	3787.02
404.81	3791.86
405.03	3815.12
405.24	3826.92
405.46	3822.41
405.67	3853.62
405.89	3843.22
406.10	3828.64
406.32	3853.21
406.53	3874.51
406.75	3885.73
406.96	3883.93
407.18	3886.47
407.39	3879.67
407.61	3896.71
407.82	3894.17
408.04	3919.98
408.25	3928.91
408.47	3924.81
408.68	3961.51
408.90	3928.50
409.12	3954.38
409.33	3966.42
409.55	3965.52
409.76	3955.20
409.98	3966.75
410.19	3989.69
410.41	3997.96
410.62	4022.78
410.84	4000.42
411.05	4008.53
411.27	4043.35
411.48	4051.29
411.70	4056.04
411.91	4045.48
412.12	4076.28
412.34	4046.95
412.55	4065.96
412.77	4074.31
412.98	4094.38
413.20	4093.64
413.41	4120.10
413.63	4113.71
413.84	4127.80
414.06	4157.05
414.27	4147.55
414.49	4155.08
414.70	4160.65
414.92	4180.89
415.13	4162.13
415.35	4201.94
415.56	4192.03
415.78	4209.72
415.99	4233.15
416.21	4230.37
416.42	4265.18
416.63	4272.88
416.85	4251.34
417.06	4283.78
417.28	4228.32
417.49	4324.33
417.71	4290.66
417.92	4304.50
418.14	4301.80
418.35	4356.11
418.57	4325.23
418.78	4359.47
418.99	4366.52
419.21	4398.30
419.42	4391.50
419.64	4374.71
419.85	4402.48
420.07	4446.06
420.28	4424.43
420.50	4460.23
420.71	4456.63
420.92	4458.67
421.14	4498.90
421.35	4482.51
421.57	4500.62
421.78	4531.34
422.00	4531.25
422.21	4547.39
422.42	4558.78
422.64	4537.97
422.85	4595.89
423.07	4608.99
423.28	4589.33
423.50	4639.06
423.71	4642.25
423.92	4694.76
424.14	4653.56
424.35	4678.22
424.57	4704.35
424.78	4741.46
424.99	4753.99
425.21	4750.71
425.42	4772.67
425.64	4748.17
425.85	4783.89
426.06	4796.34
426.28	4807.16
426.49	4863.35
426.71	4806.75
426.92	4831.65
427.13	4892.11
427.35	4911.52
427.56	4938.39
427.78	4933.56
427.99	4955.51
428.20	4994.83
428.42	5007.69
428.63	5036.45
428.84	4981.56
429.06	5014.98
429.27	5051.68
429.49	5062.17
429.70	5111.65
429.91	5094.36
430.13	5120.99
430.34	5134.26
430.56	5153.26
430.77	5230.10
430.98	5151.05
431.20	5228.22
431.41	5245.34
431.62	5267.29
431.84	5243.86
432.05	5295.31
432.26	5302.03
432.48	5274.58
432.69	5343.97
432.91	5323.33
433.12	5350.03
433.33	5370.59
433.55	5474.79
433.76	5460.29
433.97	5437.11
434.19	5452.18
434.40	5527.55
434.61	5525.67
434.83	5556.38
435.04	5532.30
435.25	5587.43
435.47	5587.68
435.68	5589.73
435.89	5675.25
436.11	5665.83
436.32	5681.64
436.53	5664.93
436.75	5696.63
436.96	5702.69
437.17	5674.27
437.39	5750.37
437.60	5771.83
437.81	5815.66
438.03	5827.13
438.24	5845.97
438.45	5902.74
438.67	5887.50
438.88	5929.12
439.09	6045.03
439.31	5983.26
439.52	6018.57
439.73	6014.31
439.94	5961.56
440.16	6041.67
440.37	6018.82
440.58	6107.86
440.80	6114.74
441.01	6078.04
441.22	6242.70
441.44	6223.70
441.65	6173.64
441.86	6214.85
442.08	6248.11
442.29	6227.95
442.50	6275.14
442.71	6280.46
442.93	6346.66
443.14	6339.45
443.35	6439.22
443.57	6344.85
443.78	6449.38
443.99	6454.95
444.20	6435.05
444.42	6511.97
444.63	6522.62
444.84	6563.00
445.06	6614.37
445.27	6563.99
445.48	6568.57
445.69	6603.72
445.91	6620.18
446.12	6619.53
446.33	6659.26
446.54	6778.78
446.76	6729.79
446.97	6759.36
447.18	6746.99
447.39	6809.00
447.61	6888.96
447.82	6913.37
448.03	6829.07
448.25	6952.28
448.46	6982.59
448.67	7023.71
448.88	6958.92
449.10	7076.80
449.31	7084.50
449.52	7052.39
449.73	7097.11
449.95	7219.75
450.16	7117.26
450.37	7278.81
450.58	7386.78
450.79	7188.86
451.01	7295.52
451.22	7262.26
451.43	7313.71
451.64	7435.11
451.86	7402.51
452.07	7450.59
452.28	7502.45
452.49	7642.77
452.71	7500.23
452.92	7517.93
453.13	7609.19
453.34	7627.78
453.55	7726.33
453.77	7766.55
453.98	7793.75
454.19	7746.81
454.40	7813.08
454.62	7881.16
454.83	7783.26
455.04	8003.30
455.25	7864.77
455.46	8148.95
455.68	7991.17
455.89	8003.79
456.10	8048.19
456.31	8104.06
456.52	8160.91
456.74	8200.48
456.95	8326.39
457.16	8249.79
457.37	8387.99
457.58	8353.50
457.80	8381.60
458.01	8345.31
458.22	8696.66
458.43	8513.90
458.64	8576.73
458.86	8500.71
459.07	8620.64
459.28	8606.47
459.49	8732.78
459.70	8921.61
459.91	8858.86
460.13	8854.43
460.34	8915.05
460.55	8853.21
460.76	9040.72
460.97	9039.57
461.19	9064.80
461.40	9272.30
461.61	9173.43
461.82	9215.78
462.03	9280.49
462.24	9301.14
462.46	9290.82
462.67	9331.61
462.88	9473.49
463.09	9457.93
463.30	9578.02
463.51	9544.19
463.72	9766.11
463.94	9728.59
464.15	9769.88
464.36	9689.68
464.57	9989.91
464.78	9944.04
464.99	9987.21
465.20	9953.54
465.42	10160.55
465.63	10127.62
465.84	10149.65
466.05	10285.64
466.26	10359.61
466.47	10442.43
466.68	10406.47
466.90	10578.74
467.11	10507.23
467.32	10653.04
467.53	10808.69
467.74	10638.46
467.95	10730.70
468.16	10899.86
468.37	11044.61
468.59	11015.61
468.80	11217.71
469.01	11034.21
469.22	11205.17
469.43	11443.07
469.64	11339.36
469.85	11495.33
470.06	11599.94
470.28	11710.45
470.49	11543.17
470.70	11725.28
470.91	11973.24
471.12	11817.44
471.33	12139.79
471.54	12015.92
471.75	12073.59
471.96	12383.66
472.17	12360.47
472.39	12668.41
472.60	12419.87
472.81	12738.12
473.02	12662.51
473.23	12929.73
473.44	12987.56
473.65	12949.47
473.86	13099.14
474.07	13182.94
474.28	13275.18
474.49	13611.29
474.71	13528.47
474.92	13685.84
475.13	13613.91
475.34	13728.60
475.55	13842.47
475.76	13937.98
475.97	14250.26
476.18	14216.26
476.39	14467.92
476.60	14571.95
476.81	14605.29
477.02	14842.45
477.23	14827.62
477.44	14853.84
477.65	15078.29
477.87	15285.55
478.08	15326.26
478.29	15358.70
478.50	15770.51
478.71	15636.57
478.92	15802.62
479.13	15888.80
479.34	16006.60
479.55	16129.56
479.76	16155.85
479.97	16251.94
480.18	16713.06
480.39	16509.74
480.60	16910.32
480.81	16967.91
481.02	16990.52
481.23	17079.81
481.44	17388.97
481.65	17489.33
481.86	17785.63
482.07	17430.02
482.28	18262.39
482.49	17949.54
482.71	18010.90
482.92	18252.89
483.13	18494.63
483.34	18439.58
483.55	18603.17
483.76	18625.05
483.97	18920.86
484.18	18951.49
484.39	19184.06
484.60	19093.38
484.81	19542.46
485.02	19401.15
485.23	19760.85
485.44	19897.00
485.65	20102.94
485.86	19992.03
486.07	20407.11
486.28	20364.92
486.49	20630.58
486.70	20752.72
486.91	20973.74
487.12	20882.48
487.33	20879.70
487.54	21306.25
487.75	21383.91
487.96	21540.62
488.17	21508.59
488.38	21776.13
488.59	21866.65
488.80	22052.36
489.01	22107.09
489.22	22466.87
489.43	22449.83
489.64	22417.89
489.85	22828.30
490.06	22561.90
490.26	22882.94
490.47	22881.22
490.68	23152.29
490.89	23545.25
491.10	23292.70
491.31	23556.31
491.52	23870.80
491.73	23864.98
491.94	23870.30
492.15	24144.65
492.36	24243.28
492.57	24265.15
492.78	24272.53
492.99	24416.21
493.20	24751.91
493.41	24749.95
493.62	24959.17
493.83	25012.83
494.04	25112.36
494.25	25349.27
494.46	25415.95
494.67	25363.19
494.88	25693.90
495.08	25756.73
495.29	25862.16
495.50	26176.40
495.71	26034.52
495.92	26321.64
496.13	26417.16
496.34	26303.78
496.55	26490.80
496.76	26960.69
496.97	26506.12
497.18	26941.11
497.39	26874.35
497.60	27337.02
497.81	27005.83
498.02	27325.47
498.22	27096.26
498.43	27609.49
498.64	27741.46
498.85	27725.07
499.06	27784.30
499.27	28264.92
499.48	27609.81
499.69	28146.46
499.90	28236.49
500.11	28481.18
500.32	28743.90
500.52	28490.44
500.73	29007.02
500.94	29061.74
501.15	29103.03
501.36	29143.82
501.57	29096.88
501.78	29331.91
501.99	29631.81
502.20	29596.67
502.41	29623.62
502.61	29597.98
502.82	29994.14
503.03	29702.84
503.24	30276.35
503.45	30001.10
503.66	30387.43
503.87	30320.91
504.08	30665.87
504.28	30589.03
504.49	30750.74
504.70	30827.25
504.91	30994.53
505.12	30763.28
505.33	31314.18
505.54	31294.27
505.75	31385.37
505.95	31606.71
506.16	31601.71
506.37	31388.81
506.58	31917.59
506.79	31563.70
507.00	32089.62
507.21	31948.39
507.41	31908.99
507.62	32080.45
507.83	32580.97
508.04	32136.15
508.25	32586.05
508.46	32354.96
508.67	32870.14
508.87	32602.27
509.08	33159.48
509.29	33058.48
509.50	33195.28
509.71	33361.49
509.92	33475.93
510.12	33317.75
510.33	33593.24
510.54	33466.35
510.75	33761.26
510.96	33968.27
511.17	34118.75
511.37	34034.95
511.58	34335.34
511.79	34157.33
512.00	34098.76
512.21	34631.32
512.42	34669.65
512.62	34798.18
512.83	35053.85
513.04	34967.59
513.25	35300.43
513.46	34640.16
513.66	35579.03
513.87	35252.51
514.08	35631.30
514.29	35521.77
514.50	35522.10
514.71	35881.31
514.91	35711.09
515.12	35738.12
515.33	36046.54
515.54	36010.34
515.75	36382.41
515.95	36161.31
516.16	36215.87
516.37	36682.81
516.58	36811.58
516.78	36578.44
516.99	36864.75
517.20	36830.67
517.41	36953.71
517.62	37105.84
517.82	37091.42
518.03	37602.02
518.24	38016.85
518.45	37500.19
518.66	37927.48
518.86	37615.21
519.07	38137.52
519.28	37514.53
519.49	38310.37
519.69	38321.18
519.90	38338.38
520.11	38524.34
520.32	38369.35
520.52	38904.61
520.73	38520.08
520.94	39092.69
521.15	39051.32
521.36	38727.42
521.56	39469.19
521.77	38877.74
521.98	39516.05
522.19	39117.92
522.39	39609.93
522.60	39479.27
522.81	39620.90
523.02	39517.44
523.22	39902.05
523.43	40022.80
523.64	39974.38
523.84	40109.30
524.05	40454.59
524.26	40460.49
524.47	40305.91
524.67	40562.72
524.88	40697.56
525.09	41075.21
525.30	40764.74
525.50	40862.87
525.71	41006.31
525.92	41059.89
526.13	41434.50
526.33	41262.56
526.54	41107.07
526.75	41455.97
526.95	41886.37
527.16	41221.76
527.37	41866.54
527.58	42055.53
527.78	42055.20
527.99	42328.24
528.20	42592.02
528.40	42290.23
528.61	42220.02
528.82	42748.15
529.03	42706.87
529.23	42615.94
529.44	42883.97
529.65	42931.41
529.85	42988.99
530.06	42984.24
530.27	43090.00
530.47	42643.87
530.68	43623.21
530.89	42896.92
531.09	43605.19
531.30	43493.94
531.51	43191.91
531.72	43765.09
531.92	43756.41
532.13	43952.77
532.34	44012.49
532.54	43970.05
532.75	44215.56
532.96	44155.60
533.16	44483.60
533.37	44610.99
533.58	44276.10
533.78	44740.50
533.99	44971.59
534.20	44483.11
534.40	44888.69
534.61	45134.61
534.82	45134.12
535.02	45222.67
535.23	45262.40
535.44	45526.43
535.64	45407.48
535.85	45576.48
536.06	45670.28
536.26	45608.92
536.47	45656.27
536.68	46373.22
536.88	45816.99
537.09	46431.38
537.29	45706.73
537.50	46679.02
537.71	46147.54
537.91	46485.70
538.12	46630.69
538.33	46241.99
538.53	46521.82
538.74	46690.66
538.95	46764.71
539.15	46650.60
539.36	47032.26
539.56	47257.21
539.77	46892.09
539.98	47058.80
540.18	47295.79
540.39	47160.62
540.60	47395.40
540.80	47668.44
541.01	47663.61
541.21	47630.76
541.42	47850.22
541.63	47703.91
541.83	48018.81
542.04	48027.24
542.25	48058.04
542.45	48214.84
542.66	48232.61
542.86	48495.98
543.07	47551.13
543.28	48631.07
543.48	48415.70
543.69	48658.10
543.89	48467.23
544.10	49100.62
544.31	48892.55
544.51	48748.54
544.72	48993.56
544.92	48806.21
545.13	49417.90
545.33	49231.94
545.54	49086.53
545.75	49466.72
545.95	49249.14
546.16	49265.44
546.36	49898.59
546.57	48976.84
546.78	48336.73
546.98	48953.42
547.19	48184.04
547.39	49322.30
547.60	49708.30
547.80	50327.77
548.01	50354.80
548.22	49923.66
548.42	50172.94
548.63	50395.19
548.83	50180.64
549.04	50577.78
549.24	50265.26
549.45	50583.03
549.65	51053.98
549.86	50303.36
550.07	50576.14
550.27	51040.13
550.48	51105.83
550.68	50908.08
550.89	50904.97
551.09	51286.54
551.30	51030.55
551.50	51301.62
551.71	51135.49
551.91	51083.47
552.12	51379.69
552.33	51710.97
552.53	51251.81
552.74	51926.58
552.94	51964.50
553.15	51651.66
553.35	51925.76
553.56	51462.01
553.76	52057.24
553.97	51641.09
554.17	51948.86
554.38	52640.74
554.58	52018.24
554.79	52621.57
554.99	52038.89
555.20	52192.07
555.40	52848.57
555.61	52497.47
555.81	52172.66
556.02	53104.32
556.22	52854.63
556.43	52542.36
556.63	52720.04
556.84	52519.34
557.04	53120.62
557.25	52530.07
557.45	53136.52
557.66	53094.74
557.86	52899.52
558.07	53627.78
558.27	53151.42
558.48	53199.10
558.68	53384.89
558.89	53605.09
559.09	53654.82
559.30	53347.13
559.50	53686.68
559.71	53201.48
559.91	54031.07
560.12	53679.72
560.32	53727.64
560.53	53995.76
560.73	53763.93
560.94	54185.08
561.14	53759.10
561.35	54316.96
561.55	53964.55
561.76	54217.02
561.96	53720.68
562.17	54205.80
562.37	54485.96
562.57	54301.40
562.78	54319.18
562.98	54597.29
563.19	54612.04
563.39	54843.29
563.60	54946.76
563.80	54415.76
564.01	55045.30
564.21	54767.11
564.42	54730.49
564.62	54873.36
564.82	55283.77
565.03	54827.97
565.23	54966.17
565.44	55131.65
565.64	54922.34
565.85	55299.83
566.05	55033.67
566.25	55385.59
566.46	55017.70
566.66	55316.37
566.87	55340.13
567.07	55423.20
567.28	55531.74
567.48	55810.51
567.68	55130.50
567.89	56134.66
568.09	55557.13
568.30	55705.08
568.50	56095.34
568.71	55939.45
568.91	56259.67
569.11	55795.60
569.32	55899.14
569.52	56093.86
569.73	55579.99
569.93	56311.36
570.13	56066.67
570.34	55922.08
570.54	56436.61
570.75	56270.89
570.95	56291.62
571.15	56171.44
571.36	56727.01
571.56	56182.99
571.77	56203.23
571.97	55681.49
572.17	56589.06
572.38	56384.84
572.58	56684.25
572.79	56410.73
572.99	56648.29
573.19	56666.72
573.40	56597.50
573.60	56767.32
573.81	56717.59
574.01	56925.83
574.21	56757.08
574.42	56887.17
574.62	56580.95
574.82	57058.38
575.03	56717.51
575.23	57277.84
575.43	56851.53
575.64	56871.52
575.84	57311.01
576.05	56685.48
576.25	57076.07
576.45	56884.79
576.66	57506.88
576.86	57038.47
577.06	57393.34
577.27	57301.92
577.47	57447.65
577.67	57391.78
577.88	57006.77
578.08	57660.56
578.28	57747.07
578.49	57494.51
578.69	57741.50
578.89	57367.37
579.10	57718.31
579.30	58238.17
579.50	57688.58
579.71	57235.07
579.91	57918.11
580.11	57589.86
580.32	57681.86
580.52	57639.10
580.72	58434.36
580.93	57659.09
581.13	57770.00
581.33	58215.97
581.54	57791.38
581.74	57847.09
581.94	58071.46
582.15	58432.23
582.35	58076.05
582.55	58218.10
582.76	57913.69
582.96	58492.12
583.16	58061.06
583.37	58399.30
583.57	58089.24
583.77	58558.06
583.97	57562.91
584.18	58749.10
584.38	58541.19
584.58	58195.00
584.79	58822.74
584.99	58620.89
585.19	58578.87
585.40	58518.00
585.60	58774.25
585.80	58163.79
586.00	58721.90
586.21	58540.53
586.41	58664.31
586.61	58984.53
586.82	58898.02
587.02	58662.67
587.22	59101.59
587.42	58444.85
587.63	59136.24
587.83	58427.89
588.03	58772.28
588.23	58430.76
588.44	58867.80
588.64	58656.86
588.84	58957.58
589.05	59136.33
589.25	59232.58
589.45	59133.79
589.65	58917.11
589.86	59313.11
590.06	59229.06
590.26	58877.71
590.46	59314.17
590.67	58635.39
590.87	59385.36
591.07	59577.87
591.27	59041.63
591.48	59556.57
591.68	58946.19
591.88	59935.03
592.08	59079.72
592.29	59555.26
592.49	59308.44
592.69	59641.27
592.89	59252.32
593.10	59401.17
593.30	59253.22
593.50	59894.40
593.70	58806.19
593.90	59659.87
594.11	59461.38
594.31	59575.98
594.51	59842.22
594.71	59951.50
594.92	59993.44
595.12	59672.48
595.32	59691.49
595.52	60069.14
595.72	59413.79
595.93	60179.97
596.13	59856.80
596.33	59500.54
596.53	60076.34
596.73	59884.49
596.94	59720.65
597.14	60138.27
597.34	59890.31
597.54	60310.22
597.74	59856.80
597.95	59992.21
598.15	60007.20
598.35	60193.73
598.55	60370.68
598.75	60002.94
598.96	60654.94
599.16	60102.07
599.36	60252.39
599.56	60143.76
599.76	60004.83
599.97	60513.38
600.17	60296.95
600.37	60420.08
600.57	59715.00
600.77	60769.21
600.97	60362.40
601.18	60926.91
601.38	60439.41
601.58	60810.91
601.78	60533.78
601.98	60302.93
602.18	60677.38
602.39	61080.75
602.59	60735.46
602.79	60634.54
602.99	60677.87
603.19	60661.16
603.39	60471.93
603.60	60537.06
603.80	60550.49
604.00	60454.40
604.20	60663.87
604.40	60884.80
604.60	60706.22
604.80	60730.87
605.01	60886.93
605.21	60723.83
605.41	60641.34
605.61	60407.21
605.81	60798.79
606.01	61119.66
606.21	60529.68
606.42	60886.93
606.62	60520.43
606.82	61058.22
607.02	60767.82
607.22	61023.65
607.42	61370.25
607.62	60610.95
607.82	61007.60
608.03	60972.86
608.23	60728.58
608.43	60680.66
608.63	61148.09
608.83	60952.87
609.03	60931.66
609.23	60928.71
609.43	61114.01
609.63	60815.09
609.84	60658.62
610.04	61212.48
610.24	61176.68
610.44	61238.61
610.64	60971.72
610.84	61326.34
611.04	61692.44
611.24	61361.57
611.44	60638.22
611.64	61306.93
611.85	61277.44
612.05	61108.36
612.25	61354.19
612.45	60950.58
612.65	61243.60
612.85	61363.12
613.05	61003.50
613.25	61560.14
613.45	61355.83
613.65	61362.88
613.85	60971.72
614.05	61340.19
614.25	61430.95
614.46	61213.13
614.66	60980.32
614.86	60733.74
615.06	61109.67
615.26	61447.17
615.46	60631.84
615.66	61409.82
615.86	61418.09
616.06	60909.70
616.26	60909.79
616.46	61488.13
616.66	61027.58
616.86	61557.68
617.06	61098.20
617.26	61652.95
617.46	61355.67
617.66	61134.65
617.86	61033.48
618.07	61270.72
618.27	61234.35
618.47	61167.83
618.67	61206.50
618.87	61395.07
619.07	61014.15
619.27	60955.00
619.47	61050.85
619.67	61555.63
619.87	61122.20
620.07	61465.44
620.27	61440.13
620.47	61113.68
620.67	61374.02
620.87	61335.60
621.07	61415.88
621.27	61235.66
621.47	60894.47
621.67	61307.17
621.87	60881.36
622.07	61332.32
622.27	61215.10
622.47	60831.80
622.67	61014.31
622.87	60483.40
623.07	61004.07
623.27	61425.14
623.47	60540.25
623.67	61111.55
623.87	61488.38
624.07	61357.96
624.27	60957.63
624.47	61170.12
624.67	61046.18
624.87	61201.50
625.07	60881.85
625.27	61420.71
625.47	60976.30
625.67	60765.77
625.87	61016.28
626.07	60920.43
626.27	61221.08
626.47	61032.01
626.67	60885.62
626.87	60464.80
627.07	61048.97
627.27	60894.30
627.47	61117.04
627.67	60884.23
627.87	60831.72
628.07	61181.51
628.27	60878.74
628.47	60687.38
628.67	61160.62
628.86	61257.78
629.06	60851.21
629.26	60787.89
629.46	61094.10
629.66	61048.64
629.86	60440.72
630.06	60946.81
630.26	60832.29
630.46	61173.32
630.66	60565.32
630.86	60805.50
631.06	60801.65
631.26	60469.80
631.46	61085.42
631.66	61009.48
631.86	60655.76
632.06	61063.14
632.26	60782.40
632.45	60830.16
632.65	60849.49
632.85	60922.48
633.05	60765.94
633.25	60929.45
633.45	60533.37
633.65	60735.71
633.85	61360.75
634.05	60405.58
634.25	60630.20
634.45	60638.55
634.65	61050.85
634.84	60483.64
635.04	60657.80
635.24	60242.97
635.44	60709.25
635.64	60359.21
635.84	60590.30
636.04	60482.01
636.24	60491.10
636.44	60629.05
636.64	60052.67
636.84	60983.35
637.03	60159.00
637.23	60577.77
637.43	60663.29
637.63	60383.29
637.83	60622.66
638.03	60585.39
638.23	60115.34
638.43	60530.42
638.62	60796.16
638.82	59783.16
639.02	60601.93
639.22	60137.78
639.42	60504.94
639.62	60043.00
639.82	60320.22
640.02	60385.18
640.21	60561.55
640.41	59870.97
640.61	60379.69
640.81	60334.39
641.01	60162.03
641.21	60035.55
641.41	60764.38
641.61	60078.06
641.80	60126.64
642.00	60461.28
642.20	60423.76
642.40	59730.16
642.60	60222.65
642.80	60411.47
642.99	59784.55
643.19	60320.46
643.39	59703.78
643.59	60080.77
643.79	59935.77
643.99	60251.98
644.19	60100.76
644.38	59576.56
644.58	60033.99
644.78	59891.78
644.98	59780.62
645.18	60047.34
645.38	60251.49
645.57	59791.59
645.77	59913.98
645.97	59738.35
646.17	60126.56
646.37	60033.83
646.56	59649.79
646.76	59821.17
646.96	59824.69
647.16	59459.91
647.36	59716.64
647.55	59418.78
647.75	59543.05
647.95	59147.30
648.15	59555.26
648.35	59477.60
648.55	59637.67
648.74	59349.72
648.94	59407.23
649.14	59673.30
649.34	59233.89
649.54	59144.93
649.73	59140.34
649.93	58945.46
650.13	59183.51
650.33	58941.36
650.52	59393.96
650.72	59673.47
650.92	59174.09
651.12	59010.83
651.32	59330.06
651.51	59383.72
651.71	59365.54
651.91	58965.69
652.11	58816.11
652.30	58706.25
652.50	59216.44
652.70	59212.92
652.90	58752.29
653.10	59229.30
653.29	58927.35
653.49	59346.45
653.69	58803.41
653.89	58943.82
654.08	58919.57
654.28	59338.75
654.48	59063.01
654.68	59288.94
654.87	59032.21
655.07	58745.82
655.27	59378.23
655.47	58878.69
655.66	58829.79
655.86	58667.83
656.06	59098.48
656.26	58234.07
656.45	58619.99
656.65	58547.66
656.85	58464.02
657.04	58206.38
657.24	58165.92
657.44	58183.53
657.64	58866.81
657.83	57801.95
658.03	58386.85
658.23	58272.82
658.43	58136.02
658.62	58311.49
658.82	58018.22
659.02	58043.45
659.21	58252.26
659.41	57857.57
659.61	58358.43
659.81	57882.81
660.00	57663.18
660.20	58043.53
660.40	57801.95
660.59	57963.25
660.79	57487.14
660.99	57925.08
661.19	57966.44
661.38	57929.25
661.58	57211.73
661.78	57677.52
661.97	57287.75
662.17	58082.44
662.37	57316.75
662.56	57287.17
662.76	57358.53
662.96	57421.60
663.15	57622.80
663.35	57454.53
663.55	57282.75
663.74	56987.68
663.94	57392.03
664.14	56873.89
664.33	57289.47
664.53	57012.50
664.73	57616.32
664.93	56759.78
665.12	57363.60
665.32	56950.82
665.52	57078.28
665.71	56763.22
665.91	56925.34
666.10	56620.03
666.30	57023.23
666.50	56481.42
666.69	56549.33
666.89	56825.15
667.09	57155.12
667.28	56679.09
667.48	56429.65
667.68	56676.47
667.87	56578.09
668.07	56307.75
668.27	56650.99
668.46	56693.76
668.66	56318.32
668.86	56713.42
669.05	56164.07
669.25	56564.08
669.44	56249.35
669.64	56224.61
669.84	56310.13
670.03	56634.12
670.23	56200.93
670.43	56220.51
670.62	56109.43
670.82	56001.38
671.01	56340.85
671.21	55881.69
671.41	55946.90
671.60	56173.33
671.80	56472.82
672.00	56080.18
672.19	56464.05
672.39	56304.23
672.58	56207.32
672.78	55952.14
672.98	56447.18
673.17	56114.18
673.37	55255.34
673.56	55549.10
673.76	55694.67
673.96	55904.88
674.15	55685.25
674.35	55746.61
674.54	55641.26
674.74	55624.47
674.94	55477.92
675.13	55637.58
675.33	55168.43
675.52	55746.53
675.72	55671.25
675.91	55475.46
676.11	55952.47
676.31	55233.80
676.50	55438.92
676.70	55284.67
676.89	55399.19
677.09	55531.98
677.28	55474.31
677.48	54830.92
677.68	55305.97
677.87	54977.23
678.07	54835.35
678.26	54897.60
678.46	55070.37
678.65	54876.72
678.85	55229.79
679.04	54592.13
679.24	54808.23
679.44	54687.07
679.63	54942.66
679.83	54665.45
680.02	54817.65
680.22	54360.14
680.41	54688.14
680.61	54342.28
680.80	54268.71
681.00	54430.42
681.19	54493.42
681.39	54146.66
681.59	54047.78
681.78	53984.37
681.98	54426.24
682.17	53794.24
682.37	54184.83
682.56	53842.00
682.76	54286.49
682.95	53870.34
683.15	53919.33
683.34	53698.07
683.54	53884.68
683.73	53897.05
683.93	53385.71
684.12	53822.50
684.32	53936.12
684.51	53267.26
684.71	53615.74
684.90	53465.01
685.10	53383.83
685.29	53284.05
685.49	53551.84
685.68	53450.67
685.88	53381.78
686.07	53027.81
686.27	53506.46
686.46	53418.32
686.66	53162.40
686.85	53500.64
687.05	53227.45
687.24	53085.40
687.44	53362.20
687.63	53187.30
687.83	52555.55
688.02	53124.64
688.22	53197.30
688.41	52835.55
688.61	52909.93
688.80	53014.70
689.00	52548.26
689.19	52331.91
689.39	52930.41
689.58	52782.79
689.77	52669.99
689.97	52851.36
690.16	52497.71
690.36	52014.72
690.55	51863.50
690.75	52565.46
690.94	52034.05
691.14	52296.52
691.33	51609.47
691.53	52013.49
691.72	51820.98
691.91	52056.25
692.11	51991.37
692.30	52114.74
692.50	52205.34
692.69	51715.63
692.89	51876.93
693.08	51635.11
693.28	51487.82
693.47	51737.10
693.66	51602.01
693.86	51570.72
694.05	51497.32
694.25	51509.61
694.44	51748.73
694.64	51553.68
694.83	51569.74
695.02	51506.00
695.22	51724.32
695.41	51252.30
695.61	51108.13
695.80	50907.51
695.99	50884.73
696.19	50937.08
696.38	50859.42
696.58	50413.29
696.77	51163.99
696.96	50825.67
697.16	50707.62
697.35	50748.42
697.55	50685.01
697.74	50480.38
697.93	51054.88
698.13	50418.53
698.32	50741.05
698.52	50434.26
698.71	49892.86
698.90	50608.09
699.10	49997.80
699.29	50115.68
699.49	50575.41
699.68	50186.95
699.87	50095.69
700.07	50493.16
700.26	50208.74
700.45	50196.70
700.65	49747.21
700.84	50154.67
701.04	49633.10
701.23	49876.72
701.42	49625.15
701.62	49493.75
701.81	49560.27
702.00	49448.94
702.20	49189.34
702.39	49397.25
702.58	49683.72
702.78	49348.51
702.97	49433.95
703.17	49453.12
703.36	49344.25
703.55	49131.92
703.75	49057.78
703.94	49214.25
704.13	48811.29
704.33	48607.15
704.52	49123.23
704.71	48954.24
704.91	49024.93
705.10	48819.97
705.29	49020.02
705.49	48983.23
705.68	49108.49
705.87	48959.64
706.07	48553.00
706.26	48824.80
706.45	48194.28
706.65	48060.91
706.84	48538.33
707.03	48782.21
707.23	48048.62
707.42	47963.84
707.61	48345.17
707.80	47969.08
708.00	48071.56
708.19	47929.10
708.38	48326.66
708.58	47564.07
708.77	48227.45
708.96	47718.90
709.16	47581.85
709.35	48277.34
709.54	47888.31
709.74	47651.07
709.93	47262.86
710.12	47943.52
710.31	48096.96
710.51	47424.65
710.70	47480.35
710.89	47573.41
711.09	46839.75
711.28	46842.37
711.47	47322.00
711.66	47084.19
711.86	46982.61
712.05	46972.62
712.24	47250.33
712.43	46702.62
712.63	46264.68
712.82	46935.43
713.01	46649.94
713.21	46238.30
713.40	46368.39
713.59	46672.80
713.78	46033.75
713.98	46490.77
714.17	46244.77
714.36	46254.77
714.55	45780.87
714.75	45853.12
714.94	45931.02
715.13	46212.41
715.32	45530.61
715.52	45946.59
715.71	45637.51
715.90	45668.56
716.09	45500.30
716.29	45871.31
716.48	45772.59
716.67	45255.03
716.86	45692.97
717.06	45540.44
717.25	45667.49
717.44	45721.80
717.63	45688.54
717.82	44907.45
718.02	45213.83
718.21	45386.76
718.40	45394.54
718.59	45164.43
718.79	44909.33
718.98	44755.90
719.17	45020.58
719.36	45109.71
719.55	44844.04
719.75	44778.59
719.94	44621.47
720.13	44983.88
720.32	44697.98
720.51	44434.53
720.71	44453.70
720.90	43909.27
721.09	44266.35
721.28	43984.47
721.47	44442.64
721.67	44272.33
721.86	44204.67
722.05	44123.24
722.24	43729.95
722.43	44241.37
722.63	43861.76
722.82	43960.96
723.01	43974.80
723.20	43584.54
723.39	43561.44
723.58	43872.24
723.78	43273.74
723.97	43743.47
724.16	43259.33
724.35	43496.64
724.54	43128.09
724.73	43355.99
724.93	43082.87
725.12	43407.11
725.31	42618.80
725.50	42989.98
725.69	43107.86
725.88	42734.47
726.08	42368.87
726.27	42819.01
726.46	42062.08
726.65	43053.05
726.84	42251.07
727.03	42490.11
727.23	42772.07
727.42	42292.52
727.61	42260.82
727.80	42035.46
727.99	42190.29
728.18	42155.55
728.37	42007.28
728.56	41769.80
728.76	41694.35
728.95	41869.82
729.14	41603.34
729.33	41545.42
729.52	41713.27
729.71	41718.60
729.90	41647.74
730.09	41212.50
730.29	41617.02
730.48	41103.39
730.67	41545.91
730.86	41104.86
731.05	41405.91
731.24	41136.07
731.43	41192.35
731.62	40933.32
731.81	40843.62
732.01	41314.25
732.20	40900.39
732.39	41196.53
732.58	41079.47
732.77	40349.49
732.96	40937.75
733.15	40959.21
733.34	40612.20
733.53	40698.38
733.72	40739.75
733.92	40672.74
734.11	40417.81
734.30	40533.32
734.49	40763.92
734.68	40487.28
734.87	40351.37
735.06	40245.70
735.25	40324.26
735.44	39877.64
735.63	39950.46
735.82	40004.12
736.01	39730.59
736.20	39765.16
736.40	40031.73
736.59	39798.42
736.78	40061.05
736.97	39682.18
737.16	39704.46
737.35	39903.44
737.54	39848.64
737.73	39511.05
737.92	39791.30
738.11	39868.30
738.30	39525.06
738.49	39393.74
738.68	39255.71
738.87	39327.39
739.06	39252.43
739.25	39408.65
739.44	39392.92
739.63	39144.63
739.82	38857.01
740.01	39163.39
740.20	38884.45
740.39	38927.46
740.59	38745.68
740.78	38877.82
740.97	38585.21
741.16	38443.57
741.35	38631.98
741.54	38411.87
741.73	38547.85
741.92	38355.92
742.11	38394.74
742.30	38462.98
742.49	38033.81
742.68	38421.78
742.87	38275.23
743.06	37886.52
743.25	38223.53
743.44	37923.71
743.63	38201.33
743.82	37753.08
744.01	37780.44
744.20	37507.65
744.39	37889.39
744.58	37769.95
744.77	37514.28
744.96	37218.88
745.15	37673.12
745.34	37338.24
745.53	37451.70
745.72	37238.95
745.91	37249.19
746.10	36996.80
746.29	37279.67
746.48	37255.34
746.67	37155.07
746.86	37127.05
747.04	37036.29
747.23	36850.17
747.42	37147.20
747.61	36748.18
747.80	37252.14
747.99	36543.38
748.18	36956.58
748.37	36755.63
748.56	36258.55
748.75	36485.30
748.94	36484.40
749.13	36321.38
749.32	36179.91
749.51	36288.45
749.70	36272.48
749.89	36122.73
750.08	36235.20
750.27	35788.09
750.46	36070.55
750.65	36343.99
750.84	35904.82
751.02	36029.10
751.21	35832.08
751.40	35931.86
751.59	35939.07
751.78	35776.46
751.97	35988.46
752.16	35608.85
752.35	36029.01
752.54	35635.23
752.73	35957.17
752.92	35484.01
753.11	35528.90
753.30	35581.49
753.49	35680.04
753.67	35428.55
753.86	35217.28
754.05	35463.28
754.24	35163.95
754.43	35179.60
754.62	35310.83
754.81	34961.45
755.00	35048.20
755.19	34988.32
755.38	34632.22
755.56	35019.12
755.75	35186.48
755.94	34727.08
756.13	34725.11
756.32	34854.87
756.51	34717.90
756.70	34720.44
756.89	34629.68
757.08	34573.24
757.26	34605.76
757.45	34602.97
757.64	34297.33
757.83	34636.48
758.02	34310.52
758.21	34269.89
758.40	34372.29
758.59	34276.61
758.77	34027.33
758.96	34142.26
759.15	34203.70
759.34	33819.91
759.53	34017.01
759.72	33881.51
759.91	33640.02
760.09	33814.42
760.28	33929.68
760.47	33447.26
760.66	33881.10
760.85	33418.84
761.04	33773.38
761.23	33624.86
761.41	33531.31
761.60	33676.31
761.79	33477.74
761.98	33167.02
762.17	33601.11
762.36	33106.40
762.54	33388.53
762.73	33247.71
762.92	33064.62
763.11	33415.97
763.30	33552.28
763.49	33342.73
763.67	33247.95
763.86	33266.79
764.05	33332.90
764.24	33089.36
764.43	33382.87
764.61	32901.27
764.80	32929.21
764.99	33252.46
765.18	32752.84
765.37	32980.49
765.55	33001.54
765.74	32714.83
765.93	32580.73
766.12	32745.46
766.31	32631.19
766.49	32582.94
766.68	32635.45
766.87	32497.99
767.06	32363.15
767.25	32441.38
767.43	32465.55
767.62	32251.82
767.81	32381.42
768.00	32225.28
768.19	32119.36
768.37	32229.13
768.56	32199.56
768.75	32271.48
768.94	32312.44
769.12	31984.03
769.31	32002.71
769.50	31943.56
769.69	32069.96
769.88	31580.66
770.06	32224.21
770.25	31715.17
770.44	31668.56
770.63	31909.89
770.81	31625.63
771.00	31526.27
771.19	31676.75
771.38	31635.63
771.56	31823.30
771.75	31159.84
771.94	31555.10
772.13	31447.22
772.31	31283.54
772.50	31550.60
772.69	31323.11
772.88	31665.45
773.06	31160.34
773.25	31351.70
773.44	31362.51
773.62	31251.76
773.81	31377.91
774.00	31185.16
774.19	31235.13
774.37	31138.05
774.56	31398.39
774.75	30924.41
774.94	31218.99
775.12	30965.53
775.31	31146.49
775.50	30990.03
775.68	30856.50
775.87	30778.35
776.06	30646.05
776.25	30835.12
776.43	30587.97
776.62	30920.48
776.81	30429.46
776.99	30644.33
777.18	30557.17
777.37	30313.46
777.55	30468.20
777.74	30542.59
777.93	30513.26
778.12	30436.01
778.30	30321.98
778.49	30308.63
778.68	30462.06
778.86	30341.97
779.05	30450.84
779.24	30442.32
779.42	30232.36
779.61	30158.47
779.80	30266.77
779.98	30348.11
780.17	30454.36
780.36	30076.55
780.54	30433.63
780.73	29790.24
780.92	30284.87
781.10	29988.16
781.29	29956.95
781.48	29715.86
781.66	29807.94
781.85	29856.27
782.04	29741.67
782.22	29852.09
782.41	29664.01
782.60	29742.24
782.78	29811.22
782.97	29905.26
783.16	29524.17
783.34	29497.06
783.53	29647.38
783.71	29440.04
783.90	29430.38
784.09	29408.75
784.27	29420.14
784.46	29335.60
784.65	29424.07
784.83	29156.60
785.02	29127.11
785.20	29485.51
785.39	28919.37
785.58	29474.53
785.76	29243.36
785.95	29184.62
786.14	29245.40
786.32	29285.87
786.51	29253.43
786.69	29441.19
786.88	29273.42
787.07	29241.31
787.25	29354.44
787.44	29286.36
787.62	29143.09
787.81	29285.87
788.00	29237.78
788.18	29057.65
788.37	28958.85
788.55	29423.33
788.74	29067.97
788.93	29232.62
789.11	29364.68
789.30	29150.95
789.48	28981.54
789.67	29282.43
789.86	29130.80
790.04	29168.81
790.23	29014.72
790.41	28980.31
790.60	29094.92
790.78	29144.07
790.97	28889.79
791.16	29106.71
791.34	29355.99
791.53	28844.57
791.71	29307.01
791.90	29017.18
792.08	29078.13
792.27	29104.01
792.46	29043.31
792.64	29116.95
792.83	29028.07
793.01	29106.39
793.20	29083.78
793.38	29049.62
793.57	29099.92
793.75	29114.42
793.94	29195.84
794.12	29403.59
794.31	29130.80
794.50	29249.99
794.68	29430.62
794.87	29220.01
795.05	29536.38
795.24	29227.79
795.42	29180.52
795.61	29510.57
795.79	29525.73
795.98	29157.67
796.16	29478.87
796.35	29454.05
796.53	29190.03
796.72	29424.89
796.90	29403.67
797.09	29277.43
797.27	29306.84
797.46	29208.05
797.64	29466.75
797.83	29322.98
798.01	29469.04
798.20	29547.03
798.38	29350.18
798.57	29571.93
798.75	29539.08
798.94	29064.20
799.12	29800.40
799.31	29460.28
799.49	29480.10
799.68	29351.24
799.86	29351.41
800.05	29340.76
800.23	29320.93
800.42	29171.68
800.60	29515.90
800.79	29085.50
800.97	29254.09
801.16	29500.50
801.34	29011.61
801.53	29082.30
801.71	29225.25
801.90	28962.95
802.08	29291.36
802.27	29042.00
802.45	28935.67
802.64	29126.70
802.82	29324.54
803.00	28926.58
803.19	29128.91
803.37	29343.79
803.56	29009.31
803.74	28977.04
803.93	29077.14
804.11	28910.52
804.30	28779.70
804.48	28942.55
804.67	29061.17
804.85	28911.26
805.03	29144.40
805.22	28782.32
805.40	28734.15
805.59	28921.99
805.77	28936.65
805.96	28741.03
806.14	28720.06
806.32	28860.06
806.51	29084.68
806.69	28793.13
806.88	28747.99
807.06	28701.79
807.25	28726.04
807.43	28649.36
807.61	28732.18
807.80	28609.80
807.98	28700.15
808.17	28528.37
808.35	28475.86
808.53	28734.07
808.72	28483.89
808.90	28495.93
809.09	28522.80
809.27	28533.61
809.45	28338.15
809.64	28555.65
809.82	28360.44
810.01	28341.43
810.19	28427.20
810.37	28269.10
810.56	28129.01
810.74	28307.68
810.93	28019.00
811.11	28114.68
811.29	27994.67
811.48	28102.23
811.66	28055.94
811.84	27982.38
812.03	27854.01
812.21	27970.01
812.40	28069.21
812.58	28163.01
812.76	27889.81
812.95	28152.77
813.13	27725.32
813.31	27792.33
813.50	27825.34
813.68	27728.76
813.86	27874.98
814.05	27909.55
814.23	27488.33
814.42	27740.88
814.60	27607.52
814.78	27794.29
814.97	27721.55
815.15	27653.23
815.33	27700.74
815.52	27599.57
815.70	27591.46
815.88	27593.51
816.07	27406.41
816.25	27531.50
816.43	27477.19
816.62	27182.44
816.80	27313.10
816.98	27225.21
817.17	27201.04
817.35	27223.24
817.53	27187.93
817.72	27254.04
817.90	26878.93
818.08	26926.37
818.26	27076.19
818.45	26862.88
818.63	27012.63
818.81	26901.71
819.00	26698.30
819.18	27021.72
819.36	26952.09
819.55	26966.59
819.73	26765.15
819.91	27005.25
820.09	26851.33
820.28	27013.36
820.46	26733.69
820.64	27070.05
820.83	26772.19
821.01	26769.08
821.19	26669.55
821.38	26725.09
821.56	26628.75
821.74	26709.69
821.92	26440.67
822.11	26717.06
822.29	26379.89
822.47	26420.11
822.65	26542.08
822.84	26570.18
823.02	26325.33
823.20	26624.33
823.39	26250.78
823.57	26328.28
823.75	26331.64
823.93	26121.68
824.12	26194.91
824.30	26084.57
824.48	26069.25
824.66	26255.61
824.85	25791.63
825.03	26132.74
825.21	26159.85
825.39	26020.75
825.58	26113.81
825.76	25924.50
825.94	26014.28
826.12	25890.09
826.31	25772.79
826.49	25959.31
826.67	25899.92
826.85	25795.31
827.03	25782.21
827.22	25873.05
827.40	25655.56
827.58	25622.87
827.76	25692.91
827.95	25483.28
828.13	25557.50
828.31	25508.68
828.49	25645.32
828.67	25525.80
828.86	25379.58
829.04	25462.40
829.22	25343.94
829.40	25191.08
829.58	25196.00
829.77	25245.31
829.95	25144.06
830.13	25209.27
830.31	25163.97
830.49	25209.27
830.68	25239.82
830.86	25074.26
831.04	25034.21
831.22	25106.13
831.40	25019.62
831.59	25154.22
831.77	24885.36
831.95	25116.04
832.13	24772.72
832.31	24910.43
832.50	24839.73
832.68	24680.24
832.86	24704.57
833.04	24853.74
833.22	24471.59
833.40	24930.09
833.59	24659.84
833.77	24866.27
833.95	24236.32
834.13	24895.93
834.31	24572.10
834.49	24579.88
834.67	24578.33
834.86	24622.07
835.04	24506.24
835.22	24589.39
835.40	24456.60
835.58	24401.06
835.76	24414.00
835.95	24404.50
836.13	24333.56
836.31	24211.25
836.49	24407.45
836.67	24379.27
836.85	24299.97
837.03	24285.71
837.21	24224.93
837.40	24054.05
837.58	23760.78
837.76	24023.16
837.94	23915.93
838.12	24064.29
838.30	23904.79
838.48	23875.55
838.66	23856.13
838.85	23881.45
839.03	23883.82
839.21	23854.00
839.39	23836.23
839.57	23922.90
839.75	23682.30
839.93	23733.83
840.11	23630.94
840.29	23627.25
840.47	23667.15
840.66	23559.50
840.84	23528.79
841.02	23392.72
841.20	23497.08
841.38	23426.47
841.56	23391.08
841.74	23641.51
841.92	23411.89
842.10	23336.77
842.28	23461.78
842.46	23342.17
842.65	23250.92
842.83	23422.95
843.01	23526.98
843.19	23268.20
843.37	23417.13
843.55	23269.92
843.73	23372.73
843.91	23336.69
844.09	23104.53
844.27	23274.26
844.45	22967.23
844.63	22915.79
844.81	23013.43
844.99	22960.84
845.17	22853.37
845.35	22988.12
845.54	22858.28
845.72	22862.79
845.90	22840.09
846.08	22851.32
846.26	22616.29
846.44	22788.57
846.62	22544.53
846.80	22484.24
846.98	22568.94
847.16	22497.43
847.34	22559.36
847.52	22541.25
847.70	22508.16
847.88	22624.98
848.06	22435.66
848.24	22625.79
848.42	22568.78
848.60	22384.95
848.78	22559.11
848.96	22373.49
849.14	22326.79
849.32	22348.34
849.50	22142.15
849.68	22360.13
849.86	22208.91
850.04	22123.71
850.22	22071.61
850.40	21938.41
850.58	22106.51
850.76	22410.18
850.94	21753.28
851.12	22153.37
851.30	21940.54
851.48	22160.50
851.66	21858.79
851.84	21828.48
852.02	21817.34
852.20	21892.62
852.38	21664.07
852.56	21716.58
852.74	21716.99
852.92	21638.67
853.10	21541.85
853.28	21668.74
853.46	21280.36
853.64	21580.27
853.82	21379.81
854.00	21430.35
854.18	21339.51
854.36	21227.28
854.54	21432.57
854.72	21224.57
854.90	21181.90
855.07	21330.17
855.25	21266.68
855.43	21327.63
855.61	21275.45
855.79	21155.84
855.97	21232.77
856.15	21216.71
856.33	21133.15
856.51	21334.92
856.69	21037.06
856.87	21252.67
857.05	21057.79
857.23	21264.39
857.41	20968.25
857.59	21062.54
857.77	20992.42
857.94	20963.42
858.12	21178.86
858.30	20876.34
858.48	20920.00
858.66	20805.81
858.84	20941.55
859.02	20774.59
859.20	20636.97
859.38	20886.58
859.56	20736.42
859.74	20666.87
859.92	20712.17
860.09	20529.90
860.27	20603.30
860.45	20391.46
860.63	20418.00
860.81	20544.16
860.99	20369.18
861.17	20158.32
861.35	19808.77
861.53	19713.58
861.70	19639.86
861.88	20016.60
862.06	20014.39
862.24	19721.20
862.42	19738.98
862.60	20041.91
862.78	20065.83
862.96	20159.63
863.14	20015.13
863.31	20005.46
863.49	20007.84
863.67	19962.21
863.85	19907.49
864.03	20034.46
864.21	19998.66
864.39	19925.02
864.56	19771.58
864.74	19884.79
864.92	19747.83
865.10	19630.19
865.28	19698.43
865.46	19922.23
865.64	19470.53
865.81	19716.78
865.99	19461.77
866.17	19671.40
866.35	19530.49
866.53	19499.61
866.71	19510.18
866.88	19486.42
867.06	19350.44
867.24	19381.24
867.42	19219.53
867.60	19324.14
867.78	19127.70
867.95	19309.97
868.13	19025.71
868.31	19155.72
868.49	19135.48
868.67	19045.45
868.84	19038.16
869.02	19105.58
869.20	18808.63
869.38	19034.89
869.56	18856.30
869.73	18808.54
869.91	18855.98
870.09	18820.51
870.27	18728.59
870.45	18717.12
870.62	18561.64
870.80	18836.07
870.98	18728.67
871.16	18767.09
871.34	18672.72
871.51	18741.45
871.69	18522.57
871.87	18608.34
872.05	18506.67
872.23	18528.06
872.40	18358.81
872.58	18415.25
872.76	18226.18
872.94	18278.45
873.11	18281.07
873.29	18197.27
873.47	18237.33
873.65	18196.37
873.83	18145.82
874.00	18196.53
874.18	18319.33
874.36	18194.40
874.54	18195.79
874.71	18087.82
874.89	17874.43
875.07	17974.12
875.25	17947.58
875.42	17920.55
875.60	17917.35
875.78	17997.22
875.96	17861.89
876.13	17998.29
876.31	17785.71
876.49	17756.87
876.66	17659.31
876.84	17916.37
877.02	17717.22
877.20	17735.82
877.37	17759.66
877.55	17698.87
877.73	17706.08
877.91	17613.19
878.08	17683.06
878.26	17662.75
878.44	17666.52
878.61	17664.30
878.79	17561.58
878.97	17568.46
879.15	17660.86
879.32	17647.51
879.50	17590.00
879.68	17690.85
879.85	17456.07
880.03	17705.92
880.21	17452.63
880.38	17638.75
880.56	17518.49
880.74	17689.29
880.92	17457.05
881.09	17576.81
881.27	17506.94
881.45	17530.45
881.62	17415.52
881.80	17391.84
881.98	17333.11
882.15	17417.97
882.33	17323.28
882.51	17379.47
882.68	17201.22
882.86	17426.49
883.04	17167.38
883.21	17232.18
883.39	17382.09
883.57	17200.48
883.74	17295.75
883.92	17281.99
884.10	17289.44
884.27	17248.16
884.45	17175.41
884.63	17338.19
884.80	17227.68
884.98	17245.04
885.16	17261.59
885.33	17239.64
885.51	17241.69
885.69	17171.56
885.86	17173.69
886.04	17196.06
886.21	17056.38
886.39	17211.95
886.57	16952.92
886.74	17222.43
886.92	17113.89
887.10	17151.66
887.27	17135.27
887.45	17086.61
887.62	17081.70
887.80	17081.86
887.98	17235.38
888.15	17237.75
888.33	17103.73
888.51	17283.46
888.68	17116.76
888.86	17169.02
889.03	17077.19
889.21	17225.38
889.39	17235.30
889.56	17237.59
889.74	17158.62
889.91	17220.39
890.09	17141.99
890.27	17186.14
890.44	17196.55
890.62	17252.66
890.79	17285.76
890.97	17261.92
891.14	17184.75
891.32	17209.25
891.50	17084.32
891.67	17219.65
891.85	17156.57
892.02	17134.70
892.20	17247.09
892.38	17134.70
892.55	17051.31
892.73	17163.70
892.90	17036.81
893.08	17101.52
893.25	17058.84
893.43	17198.84
893.60	17048.68
893.78	17142.32
893.96	17093.41
894.13	17128.72
894.31	17277.89
894.48	17179.75
894.66	17198.02
894.83	17231.61
895.01	17198.27
895.18	17187.86
895.36	17101.36
895.53	17208.02
895.71	17081.12
895.89	17122.90
896.06	16963.65
896.24	17073.92
896.41	16970.45
896.59	17050.08
896.76	16831.11
896.94	16993.64
897.11	17009.12
897.29	16991.59
897.46	16864.53
897.64	16928.43
897.81	16921.55
897.99	16742.64
898.16	17034.27
898.34	16928.35
898.51	16891.48
898.69	16797.85
898.86	16843.64
899.04	16942.60
899.21	16767.62
899.39	16820.13
899.56	16705.94
899.74	16943.17
899.91	16755.74
900.09	16699.14
900.26	16686.28
900.44	16563.40
900.61	16601.82
900.79	16793.10
900.96	16631.64
901.14	16610.75
901.31	16521.87
901.49	16567.33
901.66	16621.07
901.84	16595.76
902.01	16477.79
902.19	16550.13
902.36	16409.55
902.54	16455.02
902.71	16414.88
902.88	16501.06
903.06	16259.97
903.23	16523.91
903.41	16307.48
903.58	16224.58
903.76	16185.34
903.93	16280.61
904.11	16346.40
904.28	16229.42
904.45	16202.71
904.63	16183.87
904.80	16001.11
904.98	16120.38
905.15	15970.63
905.33	16093.84
905.50	15895.68
905.68	16009.38
905.85	15935.24
906.02	15924.19
906.20	15952.94
906.37	15766.74
906.55	15733.56
906.72	15896.91
906.90	15691.45
907.07	15591.02
907.24	15625.76
907.42	15554.08
907.59	15545.64
907.77	15463.80
907.94	15449.79
908.11	15453.81
908.29	15422.76
908.46	15384.83
908.64	15328.88
908.81	15356.41
908.98	15203.55
909.16	15296.20
909.33	15160.95
909.51	15106.06
909.68	15081.57
909.85	15101.89
910.03	15098.36
910.20	14969.10
910.37	14954.84
910.55	14889.88
910.72	14834.09
910.90	14755.21
911.07	14722.11
911.24	14644.04
911.42	14778.80
911.59	14600.79
911.76	14678.12
911.94	14545.41
912.11	14506.91
912.29	14513.30
912.46	14405.49
912.63	14493.56
912.81	14289.01
912.98	14405.33
913.15	14240.92
913.33	14352.98
913.50	14290.07
913.67	14233.46
913.85	14233.22
914.02	14272.95
914.19	14210.20
914.37	14176.78
914.54	14193.08
914.71	14101.08
914.89	14106.24
915.06	14109.36
915.23	14003.52
915.41	13914.15
915.58	13889.00
915.75	13793.07
915.93	13844.27
916.10	13757.60
916.27	13727.29
916.45	13705.91
916.62	13592.45
916.79	13654.38
916.97	13557.23
917.14	13530.44
917.31	13480.80
917.49	13498.49
917.66	13529.37
917.83	13431.81
918.00	13451.06
918.18	13390.85
918.35	13311.88
918.52	13362.91
918.70	13202.11
918.87	13210.38
919.04	13187.20
919.21	13179.01
919.39	13032.95
919.56	13138.21
919.73	12955.53
919.91	13037.04
920.08	12934.72
920.25	12894.42
920.42	12970.20
920.60	12821.43
920.77	12763.51
920.94	12800.71
921.11	12635.56
921.29	12725.50
921.46	12524.15
921.63	12616.14
921.81	12541.02
921.98	12523.17
922.15	12509.48
922.32	12569.61
922.50	12481.14
922.67	12464.02
922.84	12444.36
923.01	12364.16
923.19	12352.36
923.36	12369.73
923.53	12153.30
923.70	12223.42
923.87	12141.51
924.05	12203.27
924.22	12024.69
924.39	12100.46
924.56	11985.37
924.74	12011.66
924.91	12015.60
925.08	11955.55
925.25	11955.71
925.43	11920.90
925.60	11804.98
925.77	11946.21
925.94	11832.18
926.11	11806.05
926.29	11704.80
926.46	11769.18
926.63	11709.88
926.80	11693.90
926.97	11597.97
927.15	11611.74
927.32	11512.37
927.49	11491.23
927.66	11475.51
927.83	11512.21
928.01	11432.09
928.18	11402.19
928.35	11278.25
928.52	11324.20
928.69	11186.01
928.87	11224.51
929.04	11182.48
929.21	11218.94
929.38	11104.41
929.55	11135.38
929.72	11044.04
929.90	11075.01
930.07	11018.97
930.24	10935.91
930.41	10908.96
930.58	10853.82
930.75	10918.62
930.93	10852.43
931.10	10829.66
931.27	10691.79
931.44	10716.86
931.61	10658.28
931.78	10714.81
931.95	10646.57
932.13	10580.95
932.30	10708.01
932.47	10514.84
932.64	10621.75
932.81	10516.89
932.98	10494.94
933.15	10509.52
933.33	10440.46
933.50	10514.84
933.67	10412.45
933.84	10393.28
934.01	10402.70
934.18	10356.74
934.35	10350.43
934.52	10330.53
934.70	10335.69
934.87	10295.30
935.04	10207.49
935.21	10217.81
935.38	10164.31
935.55	10168.33
935.72	10186.92
935.89	10083.05
936.06	10059.21
936.24	9991.63
936.41	10087.47
936.58	9983.36
936.75	9987.12
936.92	9973.28
937.09	9978.93
937.26	9878.17
937.43	9904.06
937.60	9892.51
937.77	9844.42
937.94	9852.86
938.12	9838.36
938.29	9735.63
938.46	9790.36
938.63	9698.93
938.80	9726.21
938.97	9682.88
939.14	9667.48
939.31	9612.18
939.48	9663.05
939.65	9517.81
939.82	9543.86
939.99	9516.17
940.16	9461.94
940.33	9454.57
940.50	9451.70
940.67	9396.41
940.85	9412.96
941.02	9341.20
941.19	9358.48
941.36	9312.44
941.53	9306.46
941.70	9303.10
941.87	9201.69
942.04	9269.60
942.21	9207.75
942.38	9222.58
942.55	9125.50
942.72	9140.33
942.89	9151.47
943.06	9070.86
943.23	9071.19
943.40	9011.80
943.57	9031.38
943.74	9018.68
943.91	8977.97
944.08	8970.76
944.25	9003.94
944.42	8889.50
944.59	8864.43
944.76	8888.59
944.93	8874.50
945.10	8841.24
945.27	8828.71
945.44	8739.58
945.61	8732.54
945.78	8709.44
945.95	8705.51
946.12	8627.27
946.29	8694.28
946.46	8599.75
946.63	8590.82
946.80	8606.96
946.97	8573.62
947.14	8522.74
947.31	8583.77
947.48	8517.50
947.65	8525.69
947.82	8486.78
947.99	8525.45
948.16	8397.82
948.33	8492.84
948.50	8413.55
948.67	8399.38
948.84	8354.16
949.01	8362.35
949.18	8348.75
949.35	8352.03
949.52	8243.65
949.68	8285.92
949.85	8255.85
950.02	8247.83
950.19	8192.94
950.36	8178.52
950.53	8196.46
950.70	8143.95
950.87	8136.42
951.04	8201.79
951.21	8059.25
951.38	8067.03
951.55	8098.82
951.72	8043.52
951.89	8017.96
952.06	8031.15
952.23	8026.73
952.39	7968.81
952.56	7916.55
952.73	7968.48
952.90	7876.82
953.07	7933.67
953.24	7883.61
953.41	7838.23
953.58	7790.15
953.75	7850.68
953.92	7771.71
954.09	7743.29
954.25	7687.83
954.42	7715.76
954.59	7674.97
954.76	7673.25
954.93	7656.13
955.10	7647.85
955.27	7610.33
955.44	7580.27
955.61	7564.30
955.77	7622.87
955.94	7571.01
956.11	7576.17
956.28	7562.98
956.45	7554.63
956.62	7583.14
956.79	7525.47
956.96	7495.57
957.12	7547.91
957.29	7504.09
957.46	7470.66
957.63	7405.62
957.80	7380.72
957.97	7400.87
958.14	7423.56
958.30	7327.14
958.47	7316.33
958.64	7328.12
958.81	7332.63
958.98	7258.17
959.15	7270.62
959.32	7266.52
959.48	7247.27
959.65	7166.17
959.82	7217.29
959.99	7158.63
960.16	7195.91
960.33	7174.69
960.49	7140.53
960.66	7090.15
960.83	7074.99
961.00	7099.98
961.17	7071.39
961.33	7050.17
961.50	7054.02
961.67	7011.10
961.84	7052.79
962.01	7007.33
962.18	7035.02
962.34	6980.71
962.51	6966.45
962.68	6906.41
962.85	6988.00
963.02	6934.01
963.18	6919.59
963.35	6883.88
963.52	6846.69
963.69	6911.65
963.86	6871.43
964.02	6792.05
964.19	6858.98
964.36	6789.02
964.53	6811.79
964.69	6721.52
964.86	6800.16
965.03	6702.18
965.20	6751.83
965.37	6647.71
965.53	6678.18
965.70	6639.84
965.87	6668.35
966.04	6624.11
966.20	6612.89
966.37	6593.31
966.54	6523.44
966.71	6619.69
966.87	6547.36
967.04	6568.33
967.21	6522.86
967.38	6502.63
967.54	6551.70
967.71	6500.01
967.88	6486.41
968.05	6463.23
968.21	6430.70
968.38	6395.56
968.55	6435.05
968.72	6407.19
968.88	6356.89
969.05	6413.34
969.22	6355.99
969.39	6337.32
969.55	6337.07
969.72	6290.87
969.89	6303.57
970.05	6326.26
970.22	6301.27
970.39	6268.18
970.56	6290.95
970.72	6243.03
970.89	6251.55
971.06	6244.50
971.22	6232.46
971.39	6225.91
971.56	6221.40
971.73	6166.35
971.89	6205.35
972.06	6150.21
972.23	6160.62
972.39	6084.68
972.56	6133.42
972.73	6083.53
972.89	6157.26
973.06	6104.99
973.23	6074.68
973.39	6062.07
973.56	6077.22
973.73	6019.23
973.89	6044.54
974.06	6002.51
974.23	5995.55
974.39	5982.44
974.56	5963.93
974.73	5933.62
974.89	5935.91
975.06	5914.12
975.23	5956.80
975.39	5885.12
975.56	5926.90
975.73	5892.01
975.89	5894.05
976.06	5858.26
976.23	5839.74
976.39	5840.23
976.56	5825.57
976.73	5809.92
976.89	5811.48
977.06	5776.58
977.23	5772.08
977.39	5751.43
977.56	5752.33
977.72	5712.52
977.89	5748.65
978.06	5693.03
978.22	5713.75
978.39	5688.93
978.56	5670.74
978.72	5643.22
978.89	5647.89
979.05	5663.53
979.22	5640.43
979.39	5626.26
979.55	5619.71
979.72	5589.97
979.88	5620.28
980.05	5581.86
980.22	5614.63
980.38	5579.65
980.55	5558.27
980.71	5550.65
980.88	5544.10
981.05	5525.34
981.21	5480.86
981.38	5485.36
981.54	5502.65
981.71	5462.01
981.88	5478.64
982.04	5477.99
982.21	5464.96
982.37	5453.74
982.54	5469.80
982.70	5421.06
982.87	5435.31
983.04	5358.47
983.20	5413.76
983.37	5388.62
983.53	5395.41
983.70	5375.67
983.86	5370.02
984.03	5362.57
984.20	5338.32
984.36	5354.78
984.53	5352.24
984.69	5307.35
984.86	5295.23
985.02	5293.02
985.19	5293.18
985.35	5276.22
985.52	5273.11
985.68	5261.72
985.85	5243.95
986.02	5215.28
986.18	5212.33
986.35	5208.07
986.51	5212.08
986.68	5223.88
986.84	5188.00
987.01	5174.97
987.17	5193.40
987.34	5160.47
987.50	5169.48
987.67	5132.78
987.83	5154.49
988.00	5121.72
988.16	5105.50
988.33	5083.88
988.49	5091.00
988.66	5066.59
988.82	5067.74
988.99	5065.36
989.15	5072.16
989.32	5040.79
989.48	5029.16
989.65	5000.81
989.81	5003.35
989.98	4972.80
990.14	4963.87
990.31	4968.62
990.47	4963.05
990.64	4947.32
990.80	4975.58
990.97	4912.01
991.13	4933.39
991.30	4933.80
991.46	4920.78
991.63	4909.64
991.79	4902.10
991.95	4835.01
992.12	4903.08
992.28	4866.38
992.45	4891.29
992.61	4871.30
992.78	4849.10
992.94	4830.50
993.11	4864.17
993.27	4826.41
993.44	4822.15
993.60	4821.57
993.76	4818.87
993.93	4815.35
994.09	4808.71
994.26	4800.44
994.42	4783.32
994.59	4745.47
994.75	4786.18
994.91	4737.03
995.08	4722.21
995.24	4707.05
995.41	4725.81
995.57	4719.26
995.74	4702.79
995.90	4697.71
996.06	4681.90
996.23	4686.08
996.39	4653.39
996.56	4652.49
996.72	4672.40
996.88	4644.71
997.05	4652.49
997.21	4649.87
997.38	4648.40
997.54	4598.51
997.70	4636.52
997.87	4616.69
998.03	4623.58
998.20	4580.08
998.36	4595.64
998.52	4566.89
998.69	4613.34
998.85	4541.90
999.02	4574.26
999.18	4537.48
999.34	4553.04
999.51	4544.44
999.67	4553.04
999.83	4524.37
1000.00	4537.73
1000.16	4511.02
1000.33	4511.84
1000.49	4479.64
1000.65	4503.40
1000.82	4502.66
1000.98	4468.75
1001.14	4473.34
1001.31	4485.79
1001.47	4472.19
1001.63	4438.36
1001.80	4414.36
1001.96	4427.30
1002.12	4412.96
1002.29	4429.67
1002.45	4403.95
1002.61	4403.30
1002.78	4358.24
1002.94	4387.24
1003.10	4379.38
1003.27	4357.91
1003.43	4360.37
1003.59	4376.92
1003.76	4359.80
1003.92	4365.53
1004.08	4342.92
1004.25	4373.72
1004.41	4312.04
1004.57	4368.48
1004.74	4311.30
1004.90	4342.19
1005.06	4310.40
1005.23	4334.40
1005.39	4291.56
1005.55	4318.59
1005.71	4303.68
1005.88	4279.68
1006.04	4311.63
1006.20	4302.70
1006.37	4238.48
1006.53	4264.69
1006.69	4246.34
1006.85	4285.33
1007.02	4223.73
1007.18	4238.64
1007.34	4229.55
1007.51	4240.85
1007.67	4210.21
1007.83	4183.43
1007.99	4198.58
1008.16	4177.04
1008.32	4158.03
1008.48	4186.54
1008.64	4185.15
1008.81	4177.86
1008.97	4171.79
1009.13	4155.57
1009.29	4153.36
1009.46	4170.89
1009.62	4143.37
1009.78	4126.41
1009.95	4147.63
1010.11	4145.50
1010.27	4115.76
1010.43	4119.69
1010.59	4153.12
1010.76	4107.08
1010.92	4083.24
1011.08	4101.10
1011.24	4081.93
1011.41	4121.91
1011.57	4068.58
1011.73	4091.92
1011.89	4039.91
1012.06	4091.76
1012.22	4030.65
1012.38	4065.63
1012.54	4038.59
1012.70	4046.87
1012.87	4007.55
1013.03	4042.12
1013.19	4019.51
1013.35	4019.51
1013.51	4000.42
1013.68	4020.74
1013.84	3982.40
1014.00	4018.20
1014.16	3976.25
1014.32	3982.56
1014.49	3957.09
1014.65	4004.43
1014.81	3949.06
1014.97	3992.23
1015.13	3954.14
1015.30	3960.77
1015.46	3962.66
1015.62	3968.23
1015.78	3933.08
1015.94	3940.62
1016.10	3913.67
1016.27	3920.30
1016.43	3912.69
1016.59	3924.97
1016.75	3918.50
1016.91	3925.55
1017.07	3884.67
1017.24	3906.30
1017.40	3865.50
1017.56	3895.32
1017.72	3872.55
1017.88	3877.71
1018.04	3862.14
1018.21	3873.94
1018.37	3864.68
1018.53	3868.29
1018.69	3857.39
1018.85	3859.60
1019.01	3820.77
1019.17	3849.36
1019.34	3826.92
1019.50	3849.44
1019.66	3807.91
1019.82	3801.69
1019.98	3817.82
1020.14	3838.88
1020.30	3818.07
1020.46	3812.58
1020.63	3789.07
1020.79	3790.13
1020.95	3808.48
1021.11	3801.36
1021.27	3789.73
1021.43	3782.43
1021.59	3790.30
1021.75	3758.02
1021.91	3774.24
1022.07	3765.40
1022.24	3743.69
1022.40	3757.61
1022.56	3726.81
1022.72	3766.46
1022.88	3714.77
1023.04	3733.53
1023.20	3721.73
1023.36	3721.24
1023.52	3737.46
1023.68	3724.68
1023.84	3700.93
1024.01	3699.12
1024.17	3705.84
1024.33	3699.37
1024.49	3701.58
1024.65	3700.76
1024.81	3684.79
1024.97	3704.20
1025.13	3691.01
1025.29	3694.13
1025.45	3658.66
1025.61	3693.22
1025.77	3670.70
1025.93	3681.51
1026.09	3660.54
1026.25	3666.36
1026.41	3663.98
1026.57	3653.74
1026.73	3664.39
1026.90	3666.93
1027.06	3655.54
1027.22	3663.24
1027.38	3668.32
1027.54	3660.95
1027.70	3650.30
1027.86	3654.48
1028.02	3656.36
1028.18	3642.11
1028.34	3635.23
1028.50	3647.19
1028.66	3618.43
1028.82	3639.98
1028.98	3608.85
1029.14	3599.59
1029.30	3593.45
1029.46	3632.03
1029.62	3602.05
1029.78	3576.49
1029.94	3601.31
1030.10	3606.80
1030.26	3578.37
1030.42	3599.84
1030.58	3578.05
1030.74	3608.19
1030.90	3566.17
1031.06	3576.08
1031.22	3561.83
1031.38	3573.87
1031.54	3573.79
1031.70	3562.32
1031.86	3573.54
1032.02	3582.80
1032.18	3541.10
1032.34	3553.31
1032.50	3547.25
1032.66	3561.66
1032.82	3537.58
1032.98	3566.66
1033.14	3540.36
1033.30	3561.58
1033.45	3541.43
1033.61	3549.38
1033.77	3521.77
1033.93	3529.39
1034.09	3504.40
1034.25	3541.02
1034.41	3508.99
1034.57	3522.18
1034.73	3508.25
1034.89	3520.87
1035.05	3517.43
1035.21	3531.35
1035.37	3501.54
1035.53	3501.70
1035.69	3497.03
1035.85	3506.20
1036.01	3491.54
1036.16	3509.32
1036.32	3502.35
1036.48	3500.31
1036.64	3474.99
1036.80	3486.87
1036.96	3489.08
1037.12	3472.54
1037.28	3480.07
1037.44	3480.48
1037.60	3458.20
1037.76	3461.80
1037.91	3451.48
1038.07	3480.97
1038.23	3457.79
1038.39	3464.59
1038.55	3448.94
1038.71	3460.25
1038.87	3465.49
1039.03	3482.04
1039.19	3453.94
1039.35	3436.41
1039.50	3460.58
1039.66	3467.95
1039.82	3448.53
1039.98	3454.27
1040.14	3414.13
1040.30	3445.75
1040.46	3438.54
1040.62	3422.73
1040.77	3434.61
1040.93	3448.04
1041.09	3402.66
1041.25	3430.68
1041.41	3412.24
1041.57	3432.56
1041.73	3432.56
1041.88	3432.56

