SpectraSuite Data File
++++++++++++++++++++++++++++++++++++
Date: Tue Sep 20 12:06:37 EDT 2022
User: Laboratoire
Dark Spectrum Present: No
Reference Spectrum Present: No
Number of Sampled Component Spectra: 1
Spectrometers: FLMT00174
Integration Time (usec): 15000 (FLMT00174)
Spectra Averaged: 25 (FLMT00174)
Boxcar Smoothing: 0 (FLMT00174)
Correct for Electrical Dark: No (FLMT00174)
Strobe/Lamp Enabled: No (FLMT00174)
Correct for Detector Non-linearity: No (FLMT00174)
Correct for Stray Light: No (FLMT00174)
Number of Pixels in Processed Spectrum: 3648
>>>>>Begin Processed Spectral Data<<<<<
345.74	3171.40
345.96	3171.40
346.18	3171.40
346.39	3172.30
346.61	3216.05
346.83	3223.09
347.05	3222.11
347.27	3214.90
347.49	3224.08
347.71	3222.27
347.93	3216.05
348.15	3223.09
348.36	3223.18
348.58	3241.85
348.80	3218.83
349.02	3231.12
349.24	3207.12
349.46	3323.69
349.68	3363.58
349.90	3358.50
350.11	3323.12
350.33	3348.35
350.55	3321.07
350.77	3338.19
350.99	3316.32
351.21	3347.04
351.43	3332.78
351.65	3349.08
351.86	3341.47
352.08	3341.30
352.30	3313.78
352.52	3339.50
352.74	3322.62
352.96	3321.48
353.18	3344.17
353.39	3357.11
353.61	3330.32
353.83	3339.58
354.05	3375.22
354.27	3339.01
354.49	3336.80
354.70	3336.39
354.92	3333.85
355.14	3347.69
355.36	3346.95
355.58	3342.94
355.80	3326.64
356.02	3331.23
356.23	3355.72
356.45	3337.37
356.67	3345.23
356.89	3352.93
357.11	3333.36
357.33	3366.53
357.54	3332.95
357.76	3336.22
357.98	3328.28
358.20	3357.93
358.42	3323.61
358.63	3346.87
358.85	3334.50
359.07	3354.74
359.29	3330.98
359.51	3339.50
359.73	3331.72
359.94	3349.58
360.16	3319.76
360.38	3341.55
360.60	3347.12
360.82	3341.30
361.03	3342.78
361.25	3357.44
361.47	3366.94
361.69	3362.27
361.91	3338.60
362.12	3340.32
362.34	3354.25
362.56	3365.30
362.78	3346.63
363.00	3360.39
363.21	3341.47
363.43	3361.86
363.65	3350.15
363.87	3352.12
364.09	3361.95
364.30	3351.54
364.52	3343.51
364.74	3352.69
364.96	3348.59
365.17	3356.87
365.39	3335.40
365.61	3339.91
365.83	3350.89
366.05	3365.55
366.26	3347.28
366.48	3338.52
366.70	3365.71
366.92	3344.99
367.13	3344.41
367.35	3354.57
367.57	3357.93
367.79	3369.73
368.01	3364.32
368.22	3378.82
368.44	3357.77
368.66	3366.37
368.88	3371.20
369.09	3348.59
369.31	3371.53
369.53	3369.24
369.75	3354.41
369.96	3368.09
370.18	3366.29
370.40	3368.66
370.62	3374.81
370.83	3358.83
371.05	3383.57
371.27	3403.97
371.49	3369.32
371.70	3365.55
371.92	3369.48
372.14	3376.85
372.36	3364.57
372.57	3390.70
372.79	3381.03
373.01	3372.68
373.22	3370.14
373.44	3368.09
373.66	3356.78
373.88	3377.84
374.09	3370.71
374.31	3382.92
374.53	3365.30
374.75	3388.32
374.96	3384.72
375.18	3390.29
375.40	3370.63
375.61	3388.41
375.83	3348.67
376.05	3388.49
376.27	3395.04
376.48	3384.56
376.70	3366.61
376.92	3368.17
377.13	3376.20
377.35	3379.72
377.57	3374.32
377.79	3379.56
378.00	3372.51
378.22	3390.94
378.44	3375.87
378.65	3398.15
378.87	3386.68
379.09	3385.62
379.30	3363.83
379.52	3401.35
379.74	3377.84
379.96	3387.91
380.17	3383.24
380.39	3404.63
380.61	3396.35
380.82	3396.68
381.04	3399.05
381.26	3421.75
381.47	3399.71
381.69	3428.30
381.91	3399.79
382.12	3437.31
382.34	3421.99
382.56	3421.34
382.77	3414.87
382.99	3419.04
383.21	3416.75
383.42	3434.94
383.64	3426.33
383.86	3439.03
384.07	3430.68
384.29	3428.87
384.51	3420.68
384.72	3436.00
384.94	3420.52
385.16	3450.50
385.37	3431.33
385.59	3446.49
385.81	3458.12
386.02	3446.98
386.24	3445.42
386.46	3455.25
386.67	3435.51
386.89	3459.18
387.11	3481.63
387.32	3453.94
387.54	3453.37
387.76	3458.12
387.97	3475.98
388.19	3476.39
388.40	3457.71
388.62	3484.82
388.84	3485.97
389.05	3493.26
389.27	3474.34
389.49	3498.67
389.70	3493.51
389.92	3499.90
390.14	3498.18
390.35	3502.11
390.57	3507.19
390.78	3491.13
391.00	3495.23
391.22	3506.20
391.43	3511.37
391.65	3528.24
391.86	3527.09
392.08	3548.47
392.30	3541.10
392.51	3522.26
392.73	3562.40
392.95	3532.91
393.16	3539.63
393.38	3565.43
393.59	3558.14
393.81	3563.30
394.03	3559.04
394.24	3564.69
394.46	3557.65
394.67	3578.54
394.89	3574.12
395.11	3593.20
395.32	3604.34
395.54	3612.29
395.75	3612.78
395.97	3598.69
396.19	3606.96
396.40	3610.90
396.62	3624.00
396.83	3617.12
397.05	3636.46
397.26	3640.55
397.48	3634.41
397.70	3649.81
397.91	3652.92
398.13	3651.53
398.34	3654.40
398.56	3669.06
398.78	3652.10
398.99	3732.71
399.21	3677.41
399.42	3718.13
399.64	3673.32
399.85	3695.35
400.07	3701.50
400.29	3719.44
400.50	3725.91
400.72	3733.28
400.93	3718.54
401.15	3741.31
401.36	3750.16
401.58	3757.61
401.79	3756.79
402.01	3763.51
402.23	3776.70
402.44	3805.04
402.66	3784.73
402.87	3807.83
403.09	3792.35
403.30	3804.88
403.52	3805.37
403.73	3808.89
403.95	3813.48
404.16	3814.79
404.38	3841.25
404.60	3839.78
404.81	3863.21
405.03	3854.20
405.24	3875.17
405.46	3866.24
405.67	3871.40
405.89	3898.35
406.10	3892.29
406.32	3911.87
406.53	3934.31
406.75	3948.57
406.96	3923.17
407.18	3941.03
407.39	3932.84
407.61	3975.03
407.82	3960.85
408.04	3987.31
408.25	3966.01
408.47	3991.41
408.68	4010.66
408.90	3991.82
409.12	4023.77
409.33	4024.91
409.55	4040.81
409.76	4039.91
409.98	4040.23
410.19	4047.03
410.41	4082.18
410.62	4079.47
410.84	4065.63
411.05	4107.57
411.27	4124.20
411.48	4124.36
411.70	4138.54
411.91	4139.03
412.12	4143.94
412.34	4137.80
412.55	4164.42
412.77	4155.33
412.98	4190.14
413.20	4187.44
413.41	4206.77
413.63	4199.07
413.84	4215.13
414.06	4252.07
414.27	4253.71
414.49	4275.91
414.70	4250.68
414.92	4278.12
415.13	4287.79
415.35	4280.01
415.56	4298.36
415.78	4342.35
415.99	4327.44
416.21	4320.80
416.42	4360.70
416.63	4380.28
416.85	4394.70
417.06	4380.28
417.28	4359.55
417.49	4418.45
417.71	4434.34
417.92	4408.62
418.14	4446.55
418.35	4497.09
418.57	4472.11
418.78	4497.26
418.99	4516.10
419.21	4537.81
419.42	4536.91
419.64	4525.85
419.85	4531.34
420.07	4598.10
420.28	4581.14
420.50	4580.57
420.71	4613.42
420.92	4599.08
421.14	4631.03
421.35	4638.65
421.57	4667.40
421.78	4686.00
422.00	4662.57
422.21	4703.77
422.42	4727.86
422.64	4702.55
422.85	4770.54
423.07	4778.98
423.28	4760.87
423.50	4776.76
423.71	4845.66
423.92	4851.39
424.14	4830.58
424.35	4855.57
424.57	4888.01
424.78	4918.16
424.99	4946.01
425.21	4928.81
425.42	4952.56
425.64	4929.79
425.85	4978.69
426.06	4980.33
426.28	5019.65
426.49	5076.91
426.71	5047.83
426.92	5044.56
427.13	5081.34
427.35	5143.68
427.56	5147.36
427.78	5152.03
427.99	5200.37
428.20	5196.93
428.42	5270.49
428.63	5259.27
428.84	5184.88
429.06	5239.28
429.27	5303.50
429.49	5315.46
429.70	5378.62
429.91	5333.89
430.13	5364.04
430.34	5407.46
430.56	5417.86
430.77	5477.66
430.98	5412.13
431.20	5471.44
431.41	5510.35
431.62	5536.89
431.84	5513.95
432.05	5594.40
432.26	5576.29
432.48	5548.11
432.69	5648.46
432.91	5625.93
433.12	5665.50
433.33	5675.58
433.55	5763.89
433.76	5777.48
433.97	5772.16
434.19	5772.65
434.40	5827.95
434.61	5848.75
434.83	5902.98
435.04	5871.61
435.25	5929.69
435.47	5935.42
435.68	5911.99
435.89	6019.39
436.11	5996.70
436.32	6032.41
436.53	6040.12
436.75	6021.68
436.96	6076.16
437.17	6036.84
437.39	6097.05
437.60	6145.71
437.81	6160.21
438.03	6186.26
438.24	6210.92
438.45	6302.58
438.67	6264.74
438.88	6318.97
439.09	6395.72
439.31	6360.09
439.52	6401.21
439.73	6396.13
439.94	6353.45
440.16	6458.15
440.37	6429.07
440.58	6513.11
440.80	6539.41
441.01	6487.31
441.22	6703.82
441.44	6654.51
441.65	6629.03
441.86	6650.00
442.08	6716.85
442.29	6684.16
442.50	6744.70
442.71	6723.81
442.93	6797.78
443.14	6805.81
443.35	6907.72
443.57	6786.72
443.78	6905.67
443.99	6976.04
444.20	6882.16
444.42	6980.54
444.63	6988.73
444.84	7025.27
445.06	7116.45
445.27	7050.50
445.48	7050.58
445.69	7147.33
445.91	7138.56
446.12	7118.99
446.33	7223.27
446.54	7308.71
446.76	7244.65
446.97	7267.75
447.18	7301.09
447.39	7337.54
447.61	7390.63
447.82	7444.78
448.03	7403.24
448.25	7481.89
448.46	7571.18
448.67	7606.48
448.88	7523.01
449.10	7633.84
449.31	7672.10
449.52	7637.69
449.73	7662.76
449.95	7853.71
450.16	7734.19
450.37	7889.68
450.58	8061.54
450.79	7805.46
451.01	7925.39
451.22	7900.00
451.43	7947.92
451.64	8021.89
451.86	8024.02
452.07	8055.89
452.28	8156.81
452.49	8246.60
452.71	8136.01
452.92	8165.99
453.13	8263.23
453.34	8277.97
453.55	8411.58
453.77	8498.99
453.98	8456.39
454.19	8372.26
454.40	8489.16
454.62	8577.14
454.83	8484.49
455.04	8685.52
455.25	8528.15
455.46	8898.34
455.68	8711.73
455.89	8716.81
456.10	8764.41
456.31	8847.55
456.52	8914.73
456.74	8912.92
456.95	9125.50
457.16	9042.44
457.37	9180.31
457.58	9145.41
457.80	9123.21
458.01	9088.31
458.22	9504.54
458.43	9316.62
458.64	9382.32
458.86	9282.38
459.07	9444.58
459.28	9439.50
459.49	9550.25
459.70	9789.70
459.91	9705.41
460.13	9675.10
460.34	9802.23
460.55	9736.13
460.76	9950.92
460.97	9927.41
461.19	9926.59
461.40	10248.61
461.61	10078.05
461.82	10149.32
462.03	10217.73
462.24	10241.89
462.46	10236.24
462.67	10275.97
462.88	10400.57
463.09	10388.69
463.30	10592.34
463.51	10445.62
463.72	10685.97
463.94	10755.44
464.15	10767.24
464.36	10650.67
464.57	10990.06
464.78	10985.80
464.99	11060.75
465.20	10988.17
465.42	11239.17
465.63	11210.09
465.84	11203.13
466.05	11372.62
466.26	11443.15
466.47	11566.85
466.68	11484.44
466.90	11693.41
467.11	11629.92
467.32	11793.11
467.53	11973.00
467.74	11769.35
467.95	11897.06
468.16	12130.69
468.37	12221.05
468.59	12239.73
468.80	12433.79
469.01	12266.76
469.22	12503.42
469.43	12777.85
469.64	12623.52
469.85	12795.30
470.06	12888.20
470.28	13051.54
470.49	12775.88
470.70	13029.10
470.91	13322.53
471.12	13207.60
471.33	13471.29
471.54	13397.89
471.75	13490.54
471.96	13790.20
472.17	13769.15
472.39	14115.09
472.60	13863.19
472.81	14195.78
473.02	14128.20
473.23	14380.92
473.44	14463.41
473.65	14435.07
473.86	14597.68
474.07	14687.38
474.28	14814.76
474.49	15171.11
474.71	15112.62
474.92	15310.20
475.13	15256.96
475.34	15365.50
475.55	15462.33
475.76	15563.91
475.97	15973.99
476.18	15927.63
476.39	16188.46
476.60	16362.37
476.81	16360.98
477.02	16620.50
477.23	16649.58
477.44	16655.06
477.65	16887.22
477.87	17131.34
478.08	17168.94
478.29	17270.11
478.50	17650.71
478.71	17543.23
478.92	17761.71
479.13	17786.36
479.34	17941.60
479.55	18124.85
479.76	18129.77
479.97	18270.91
480.18	18795.85
480.39	18468.50
480.60	18923.40
480.81	18981.72
481.02	19098.70
481.23	19170.87
481.44	19493.71
481.65	19724.89
481.86	20043.72
482.07	19625.60
482.28	20513.11
482.49	20262.85
482.71	20389.33
482.92	20574.55
483.13	20855.37
483.34	20777.63
483.55	20957.52
483.76	21038.05
483.97	21349.42
484.18	21428.72
484.39	21676.85
484.60	21524.15
484.81	22018.20
485.02	21943.99
485.23	22333.92
485.44	22397.16
485.65	22635.38
485.86	22516.27
486.07	22955.44
486.28	22913.99
486.49	23195.21
486.70	23404.02
486.91	23651.09
487.12	23508.14
487.33	23502.24
487.54	24088.04
487.75	24140.23
487.96	24285.63
488.17	24284.08
488.38	24606.26
488.59	24685.23
488.80	24844.97
489.01	24931.48
489.22	25333.46
489.43	25340.91
489.64	25219.59
489.85	25819.56
490.06	25405.95
490.26	25905.49
490.47	25848.48
490.68	26276.67
490.89	26553.23
491.10	26259.38
491.31	26692.41
491.52	26966.01
491.73	26803.65
491.94	26876.80
492.15	27237.66
492.36	27332.68
492.57	27425.17
492.78	27503.32
492.99	27733.18
493.20	27936.26
493.41	28020.23
493.62	28161.21
493.83	28219.78
494.04	28383.21
494.25	28680.66
494.46	28721.70
494.67	28601.44
494.88	28962.95
495.08	28988.34
495.29	29192.16
495.50	29484.44
495.71	29334.29
495.92	29741.83
496.13	29778.86
496.34	29657.21
496.55	29877.98
496.76	30411.03
496.97	29973.09
497.18	30463.94
497.39	30281.68
497.60	30943.91
497.81	30569.21
498.02	30928.10
498.22	30640.97
498.43	31184.42
498.64	31292.55
498.85	31278.63
499.06	31457.86
499.27	31883.43
499.48	31218.42
499.69	31662.33
499.90	31864.84
500.11	32129.52
500.32	32524.12
500.52	32172.61
500.73	32845.98
500.94	32860.40
501.15	32815.83
501.36	32880.30
501.57	32678.21
501.78	32941.41
501.99	33301.04
502.20	33267.61
502.41	33371.81
502.61	33436.37
502.82	33838.67
503.03	33560.64
503.24	34126.12
503.45	33736.60
503.66	34278.25
503.87	34190.18
504.08	34595.84
504.28	34332.31
504.49	34557.18
504.70	34812.03
504.91	34963.25
505.12	34749.85
505.33	35371.70
505.54	35273.15
505.75	35380.05
505.95	35655.05
506.16	35494.41
506.37	35342.78
506.58	36043.43
506.79	35515.96
507.00	36059.81
507.21	35817.99
507.41	35943.41
507.62	36131.82
507.83	36723.36
508.04	36260.02
508.25	36847.71
508.46	36533.96
508.67	37172.03
508.87	36800.20
509.08	37415.41
509.29	37236.58
509.50	37351.84
509.71	37522.23
509.92	37705.89
510.12	37514.28
510.33	37782.98
510.54	37719.08
510.75	37926.99
510.96	38150.46
511.17	38420.30
511.37	38350.51
511.58	38612.65
511.79	38393.02
512.00	38355.83
512.21	38931.31
512.42	38926.64
512.62	39058.12
512.83	39297.33
513.04	39249.73
513.25	39558.48
513.46	38732.00
513.66	39935.72
513.87	39542.02
514.08	39916.88
514.29	39737.47
514.50	39848.80
514.71	40289.69
514.91	40081.29
515.12	40082.11
515.33	40454.59
515.54	40277.48
515.75	40835.84
515.95	40562.40
516.16	40646.12
516.37	41128.37
516.58	41191.61
516.78	40990.67
516.99	41345.70
517.20	41415.09
517.41	41460.55
517.62	41718.60
517.82	41581.79
518.03	42154.32
518.24	42620.85
518.45	41931.50
518.66	42388.53
518.86	42111.81
519.07	42706.62
519.28	42029.64
519.49	42788.70
519.69	42834.33
519.90	43067.23
520.11	43163.24
520.32	43121.78
520.52	43613.54
520.73	43113.35
520.94	43688.33
521.15	43686.37
521.36	43220.99
521.56	44191.48
521.77	43414.32
521.98	44234.00
522.19	43655.65
522.39	44108.58
522.60	43871.18
522.81	44176.16
523.02	44158.38
523.22	44536.19
523.43	44794.48
523.64	44616.39
523.84	44799.48
524.05	45248.39
524.26	45158.61
524.47	44852.81
524.67	45119.54
524.88	45434.68
525.09	45749.90
525.30	45458.93
525.50	45545.84
525.71	45629.81
525.92	45809.29
526.13	46154.50
526.33	45945.85
526.54	45796.68
526.75	46095.76
526.95	46536.98
527.16	45843.29
527.37	46481.52
527.58	46691.56
527.78	46669.11
527.99	46937.64
528.20	47146.29
528.40	46822.14
528.61	46760.78
528.82	47267.36
529.03	47151.53
529.23	47116.63
529.44	47618.71
529.65	47569.81
529.85	47636.49
530.06	47607.16
530.27	47697.36
530.47	47295.54
530.68	48285.37
530.89	47493.38
531.09	48207.22
531.30	48155.53
531.51	47819.58
531.72	48460.10
531.92	48487.63
532.13	48800.39
532.34	48593.63
532.54	48572.08
532.75	48786.63
532.96	48675.14
533.16	49048.93
533.37	49168.13
533.58	48840.70
533.78	49343.60
533.99	49457.54
534.20	49052.78
534.40	49455.33
534.61	49648.25
534.82	49730.50
535.02	49850.84
535.23	49866.15
535.44	50092.33
535.64	49960.53
535.85	50115.84
536.06	50232.74
536.26	50163.36
536.47	50236.02
536.68	50997.62
536.88	50151.64
537.09	50944.37
537.29	50274.36
537.50	51229.77
537.71	50636.85
537.91	50928.48
538.12	51007.94
538.33	50832.96
538.53	51222.07
538.74	51323.33
538.95	51423.68
539.15	51119.92
539.36	51463.41
539.56	51788.38
539.77	51362.56
539.98	51573.67
540.18	51880.05
540.39	51603.90
540.60	51854.90
540.80	52176.35
541.01	51940.01
541.21	51963.44
541.42	52277.35
541.63	52165.94
541.83	52417.76
542.04	52460.85
542.25	52399.16
542.45	52772.14
542.66	52727.66
542.86	52989.80
543.07	51832.61
543.28	53051.40
543.48	52718.40
543.69	53038.21
543.89	52820.23
544.10	53568.15
544.31	53371.38
544.51	53166.42
544.72	53427.49
544.92	53279.96
545.13	53706.83
545.33	53678.98
545.54	53461.90
545.75	53716.34
545.95	53520.22
546.16	53578.47
546.36	54185.16
546.57	53346.15
546.78	52559.32
546.98	53295.68
547.19	52456.26
547.39	53559.46
547.60	53794.49
547.80	54497.76
548.01	54650.70
548.22	54151.16
548.42	54378.32
548.63	54696.25
548.83	54460.49
549.04	54770.06
549.24	54331.87
549.45	54613.92
549.65	54977.88
549.86	54230.87
550.07	54579.76
550.27	55043.50
550.48	55134.10
550.68	54857.30
550.89	54846.98
551.09	55132.22
551.30	54987.39
551.50	55331.69
551.71	55125.17
551.91	55021.79
552.12	55275.25
552.33	55630.78
552.53	54965.27
552.74	55833.03
552.94	55850.73
553.15	55553.04
553.35	55867.44
553.56	55372.98
553.76	56040.29
553.97	55514.45
554.17	55793.63
554.38	56572.02
554.58	55788.55
554.79	56502.39
554.99	55970.00
555.20	56052.25
555.40	56589.23
555.61	56261.72
555.81	56034.06
556.02	56974.74
556.22	56611.10
556.43	56345.03
556.63	56472.41
556.84	56515.09
557.04	57270.87
557.25	56553.51
557.45	57023.56
557.66	56927.06
557.86	56745.61
558.07	57309.21
558.27	56865.54
558.48	56867.59
558.68	56884.30
558.89	57063.70
559.09	57092.13
559.30	56923.37
559.50	57126.12
559.71	56737.17
559.91	57623.45
560.12	57321.09
560.32	57330.84
560.53	57676.53
560.73	57247.20
560.94	57808.59
561.14	57234.99
561.35	57963.91
561.55	57652.45
561.76	57880.68
561.96	57240.48
562.17	57761.65
562.37	58071.63
562.57	57791.96
562.78	57787.86
562.98	58147.16
563.19	58043.61
563.39	58198.11
563.60	58197.78
563.80	57683.50
564.01	58390.05
564.21	57950.72
564.42	57908.69
564.62	58116.27
564.82	58546.92
565.03	58108.25
565.23	58205.73
565.44	58493.92
565.64	58320.91
565.85	58629.66
566.05	58366.13
566.25	58719.69
566.46	58323.61
566.66	58651.61
566.87	58662.26
567.07	58631.71
567.28	58738.04
567.48	59113.23
567.68	58330.41
567.89	59342.11
568.09	58782.93
568.30	58880.41
568.50	59257.32
568.71	59026.88
568.91	59249.95
569.11	58682.17
569.32	58837.00
569.52	58973.14
569.73	58396.93
569.93	59171.14
570.13	58999.19
570.34	58917.52
570.54	59428.28
570.75	59170.90
570.95	59151.07
571.15	58941.11
571.36	59517.33
571.56	59001.08
571.77	58945.87
571.97	58587.72
572.17	59562.30
572.38	59302.79
572.58	59637.34
572.79	59331.13
572.99	59401.01
573.19	59425.50
573.40	59211.94
573.60	59406.08
573.81	59297.54
574.01	59666.59
574.21	59608.51
574.42	59727.70
574.62	59479.73
574.82	60091.09
575.03	59658.39
575.23	60179.97
575.43	59855.49
575.64	59770.95
575.84	60259.02
576.05	59618.09
576.25	59770.87
576.45	59667.49
576.66	60262.30
576.86	59651.19
577.06	60142.37
577.27	59941.75
577.47	60152.20
577.67	59998.44
577.88	59468.51
578.08	60082.49
578.28	60380.18
578.49	60151.79
578.69	60383.38
578.89	60126.97
579.10	60119.11
579.30	60891.60
579.50	60407.38
579.71	59862.95
579.91	60512.07
580.11	60173.42
580.32	60170.39
580.52	60185.38
580.72	60750.37
580.93	60041.94
581.13	60272.05
581.33	60802.64
581.54	60411.23
581.74	60525.26
581.94	60716.54
582.15	61071.82
582.35	60555.90
582.55	60740.21
582.76	60316.45
582.96	60867.19
583.16	60448.42
583.37	60711.87
583.57	60379.93
583.77	60931.66
583.97	59955.27
584.18	61270.06
584.38	61006.94
584.58	60626.10
584.79	60978.92
584.99	60893.32
585.19	60670.91
585.40	60640.03
585.60	60915.11
585.80	60500.93
586.00	60854.98
586.21	60953.69
586.41	60962.38
586.61	61332.40
586.82	61023.41
587.02	60902.41
587.22	61232.71
587.42	60545.00
587.63	61342.07
587.83	60543.12
588.03	61025.37
588.23	60783.63
588.44	61062.89
588.64	60736.04
588.84	61072.97
589.05	61330.36
589.25	61243.28
589.45	61128.18
589.65	60969.42
589.86	61410.64
590.06	61308.32
590.26	61002.19
590.46	61472.16
590.67	60802.64
590.87	61511.23
591.07	61623.38
591.27	61056.58
591.48	61487.07
591.68	60885.70
591.88	61983.33
592.08	61069.69
592.29	61610.60
592.49	61484.77
592.69	61778.62
592.89	61359.36
593.10	61546.05
593.30	61268.02
593.50	62007.99
593.70	60852.20
593.90	61752.16
594.11	61472.98
594.31	61524.01
594.51	61838.42
594.71	61774.27
594.92	61950.48
595.12	61607.41
595.32	61608.14
595.52	61945.65
595.72	61107.95
595.93	61978.17
596.13	61565.14
596.33	61279.89
596.53	61958.51
596.73	61755.84
596.94	61694.65
597.14	62032.97
597.34	61718.32
597.54	62101.79
597.74	61539.41
597.95	61634.03
598.15	61565.55
598.35	61761.33
598.55	61802.86
598.75	61582.17
598.96	62289.79
599.16	62010.20
599.36	62056.24
599.56	61853.74
599.76	61763.30
599.97	62375.15
600.17	62088.10
600.37	62302.73
600.57	61351.00
600.77	62368.92
600.97	61918.94
601.18	62557.09
601.38	62032.73
601.58	62297.82
601.78	62112.60
601.98	61833.26
602.18	62364.66
602.39	62597.80
602.59	62347.87
602.79	62217.86
602.99	62211.31
603.19	62212.79
603.39	62012.58
603.60	62144.63
603.80	62201.15
604.00	62064.02
604.20	62176.82
604.40	62377.28
604.60	62072.38
604.80	62117.27
605.01	62246.95
605.21	62090.15
605.41	62023.72
605.61	61569.23
605.81	62060.99
606.01	62368.92
606.21	61824.24
606.42	62459.85
606.62	62126.03
606.82	62578.31
607.02	62190.59
607.22	62286.43
607.42	62527.60
607.62	61931.97
607.82	62246.62
608.03	62239.74
608.23	62009.87
608.43	61862.09
608.63	62463.46
608.83	62318.54
609.03	62288.07
609.23	62513.10
609.43	62645.48
609.63	62354.67
609.84	62032.81
610.04	62672.84
610.24	62439.95
610.44	62547.42
610.64	62119.73
610.84	62322.56
611.04	62709.38
611.24	62214.59
611.44	61551.21
611.64	62302.98
611.85	62306.01
612.05	62345.49
612.25	62526.62
612.45	62060.50
612.65	62396.94
612.85	62451.09
613.05	62006.35
613.25	62634.42
613.45	62420.78
613.65	62305.93
613.85	61810.73
614.05	62284.87
614.25	62519.82
614.46	62271.36
614.66	62057.63
614.86	61908.46
615.06	61996.11
615.26	62446.42
615.46	61671.79
615.66	62408.16
615.86	62292.00
616.06	61806.47
616.26	61944.67
616.46	62492.87
616.66	61963.01
616.86	62625.16
617.06	62133.90
617.26	62729.28
617.46	62379.08
617.66	62122.35
617.86	61841.61
618.07	62195.25
618.27	62035.02
618.47	62031.58
618.67	62062.22
618.87	62269.47
619.07	62028.39
619.27	61930.49
619.47	61896.82
619.67	62406.03
619.87	61812.69
620.07	62211.39
620.27	62125.62
620.47	61733.81
620.67	62174.86
620.87	62292.82
621.07	62374.33
621.27	62228.35
621.47	61689.90
621.67	62072.29
621.87	61755.76
622.07	62233.59
622.27	62116.20
622.47	61862.42
622.67	61933.85
622.87	61607.57
623.07	62209.43
623.27	62645.23
623.47	61478.47
623.67	62078.68
623.87	62340.41
624.07	62022.16
624.27	61563.91
624.47	61886.01
624.67	61733.07
624.87	61788.94
625.07	61461.67
625.27	61889.04
625.47	61480.60
625.67	61614.94
625.87	61824.41
626.07	61691.13
626.27	61952.77
626.47	61818.76
626.67	61626.98
626.87	61196.75
627.07	61677.86
627.27	61538.92
627.47	61764.28
627.67	61545.07
627.87	61579.64
628.07	61948.27
628.27	61674.09
628.47	61372.79
628.67	62013.15
628.86	62025.52
629.06	61574.64
629.26	61516.97
629.46	62042.31
629.66	61747.08
629.86	61221.49
630.06	61721.93
630.26	61571.53
630.46	61886.01
630.66	61299.96
630.86	61298.74
631.06	61335.93
631.26	60948.45
631.46	61481.66
631.66	61467.32
631.86	60964.92
632.06	61505.66
632.26	61156.85
632.45	61187.24
632.65	61366.89
632.85	61522.87
633.05	61324.21
633.25	61361.57
633.45	60822.38
633.65	60950.58
633.85	61541.87
634.05	60468.08
634.25	60884.88
634.45	60947.96
634.65	61239.92
634.84	60898.40
635.04	61128.02
635.24	60727.84
635.44	61112.12
635.64	60865.06
635.84	61051.50
636.04	60791.41
636.24	60693.68
636.44	60869.15
636.64	60069.87
636.84	61229.51
637.03	60542.38
637.23	60840.40
637.43	60995.72
637.63	60745.95
637.83	60983.84
638.03	60993.83
638.23	60343.56
638.43	60966.31
638.62	61173.65
638.82	59969.77
639.02	60837.45
639.22	60360.77
639.42	60542.71
639.62	59988.85
639.82	60254.11
640.02	60357.90
640.21	60526.08
640.41	59900.38
640.61	60493.39
640.81	60381.33
641.01	60156.05
641.21	60093.71
641.41	60774.62
641.61	60022.52
641.80	60200.12
642.00	60562.94
642.20	60581.46
642.40	59724.42
642.60	60260.42
642.80	60467.01
642.99	59987.71
643.19	60529.03
643.39	59832.23
643.59	60309.65
643.79	60000.24
643.99	60359.29
644.19	60042.51
644.38	59552.31
644.58	59866.06
644.78	59687.48
644.98	59556.41
645.18	59694.11
645.38	59939.87
645.57	59440.82
645.77	59656.92
645.97	59525.77
646.17	59856.64
646.37	59910.13
646.56	59595.64
646.76	59731.30
646.96	59815.68
647.16	59631.69
647.36	59809.53
647.55	59654.46
647.75	59736.87
647.95	59283.12
648.15	59651.19
648.35	59412.88
648.55	59544.04
648.74	59296.23
648.94	59304.34
649.14	59578.52
649.34	59101.92
649.54	59099.54
649.73	59173.93
649.93	59024.18
650.13	59087.18
650.33	58819.06
650.52	59264.61
650.72	59668.39
650.92	59262.24
651.12	58990.51
651.32	59304.67
651.51	59395.19
651.71	59418.86
651.91	59030.00
652.11	58840.27
652.30	58683.97
652.50	59211.20
652.70	59127.89
652.90	58694.21
653.10	59054.33
653.29	58628.35
653.49	59047.44
653.69	58510.30
653.89	58493.92
654.08	58402.91
654.28	58892.78
654.48	58547.90
654.68	58881.40
654.87	58496.62
655.07	58315.58
655.27	58809.80
655.47	58550.28
655.66	58548.64
655.86	58281.50
656.06	58847.40
656.26	57796.22
656.45	58320.42
656.65	58316.24
656.85	58078.59
657.04	57824.07
657.24	57778.36
657.44	57614.19
657.64	58178.53
657.83	57196.16
658.03	57941.71
658.23	57801.62
658.43	57643.77
658.62	57853.89
658.82	57558.00
659.02	57442.82
659.21	57677.68
659.41	57336.08
659.61	57904.60
659.81	57436.59
660.00	57351.23
660.20	57601.74
660.40	57272.76
660.59	57344.85
660.79	56727.51
660.99	57222.38
661.19	56964.74
661.38	56930.01
661.58	56238.20
661.78	56662.13
661.97	56591.68
662.17	57292.58
662.37	56672.54
662.56	56885.77
662.76	56888.31
662.96	57103.10
663.15	57129.64
663.35	57116.29
663.55	56822.04
663.74	56582.02
663.94	57016.68
664.14	56414.90
664.33	56673.44
664.53	56330.20
664.73	56846.53
664.93	55979.01
665.12	56510.18
665.32	56230.91
665.52	56178.57
665.71	55977.38
665.91	56165.62
666.10	55771.60
666.30	56274.25
666.50	55692.71
666.69	55757.92
666.89	56204.95
667.09	56392.46
667.28	55907.74
667.48	55784.13
667.68	55815.59
667.87	55826.56
668.07	55642.08
668.27	56122.04
668.46	56133.02
668.66	55700.33
668.86	56273.92
669.05	55741.70
669.25	56012.68
669.44	55568.03
669.64	55463.17
669.84	55428.36
670.03	55941.99
670.23	55641.43
670.43	55612.35
670.62	55589.41
670.82	55354.55
671.01	55647.16
671.21	55105.43
671.41	55206.19
671.60	55387.81
671.80	55525.76
672.00	55176.87
672.19	55450.06
672.39	55479.64
672.58	55273.28
672.78	55002.46
672.98	55335.38
673.17	55102.97
673.37	54341.05
673.56	54683.63
673.76	54865.33
673.96	55174.57
674.15	54830.76
674.35	54875.32
674.54	54684.37
674.74	54676.67
674.94	54545.93
675.13	54946.02
675.33	54293.70
675.52	54998.77
675.72	54708.37
675.91	54439.27
676.11	54770.14
676.31	54149.60
676.50	54378.32
676.70	54260.11
676.89	54238.16
677.09	54386.68
677.28	54181.47
677.48	53660.96
677.68	54010.34
677.87	53750.82
678.07	53661.78
678.26	53726.49
678.46	53818.65
678.65	53595.51
678.85	54017.88
679.04	53461.57
679.24	53788.59
679.44	53652.36
679.63	53886.89
679.83	53635.97
680.02	53628.19
680.22	53295.27
680.41	53420.28
680.61	53104.57
680.80	52918.53
681.00	53078.27
681.19	53105.06
681.39	52933.44
681.59	52856.11
681.78	52763.21
681.98	53232.77
682.17	52564.23
682.37	53051.40
682.56	52626.65
682.76	53011.92
682.95	52629.77
683.15	52722.66
683.34	52533.27
683.54	52800.81
683.73	52756.33
683.93	52239.59
684.12	52708.57
684.32	52959.57
684.51	52250.56
684.71	52655.00
684.90	52421.28
685.10	52415.14
685.29	52102.21
685.49	52401.29
685.68	52379.18
685.88	52317.25
686.07	51972.29
686.27	52394.90
686.46	52160.04
686.66	51958.61
686.85	52105.32
687.05	51787.97
687.24	51717.85
687.44	51853.75
687.63	51879.23
687.83	51331.27
688.02	51797.64
688.22	51824.83
688.41	51604.23
688.61	51613.32
688.80	51795.75
689.00	51419.58
689.19	51252.55
689.39	51827.95
689.58	51716.78
689.77	51428.10
689.97	51392.96
690.16	51173.41
690.36	50772.01
690.55	50586.96
690.75	51254.68
690.94	50747.93
691.14	50883.26
691.33	50362.17
691.53	50815.10
691.72	50606.86
691.91	50604.16
692.11	50603.92
692.30	50804.12
692.50	50784.71
692.69	50380.03
692.89	50518.31
693.08	50350.79
693.28	50252.89
693.47	50238.80
693.66	50200.71
693.86	50051.05
694.05	50001.32
694.25	50005.83
694.44	50118.63
694.64	50036.55
694.83	50088.32
695.02	49956.35
695.22	50144.76
695.41	49691.50
695.61	49541.76
695.80	49617.86
695.99	49493.02
696.19	49577.72
696.38	49516.94
696.58	49155.67
696.77	49807.09
696.96	49587.63
697.16	49363.34
697.35	49231.78
697.55	49191.39
697.74	48791.95
697.93	49328.85
698.13	48868.30
698.32	49120.86
698.52	48893.29
698.71	48445.68
698.90	49214.00
699.10	48711.92
699.29	48764.68
699.49	49215.23
699.68	48733.79
699.87	48559.06
700.07	48897.47
700.26	48490.08
700.45	48387.69
700.65	48175.11
700.84	48593.71
701.04	48261.78
701.23	48665.72
701.42	48464.53
701.62	48316.58
701.81	48481.24
702.00	48263.17
702.20	47876.68
702.39	48016.35
702.58	48207.30
702.78	47694.65
702.97	47630.59
703.17	47712.35
703.36	47723.08
703.55	47605.12
703.75	47557.52
703.94	47750.36
704.13	47485.84
704.33	47496.90
704.52	47766.09
704.71	47522.54
704.91	47299.07
705.10	47055.03
705.29	47172.83
705.49	47296.20
705.68	47227.72
705.87	47326.51
706.07	46837.86
706.26	47253.52
706.45	46640.77
706.65	46454.40
706.84	46949.27
707.03	47154.73
707.23	46414.92
707.42	46382.56
707.61	46834.01
707.80	46442.61
708.00	46581.62
708.19	46393.78
708.38	46832.95
708.58	45920.21
708.77	46441.05
708.96	45744.41
709.16	45588.19
709.35	46393.70
709.54	45992.54
709.74	45765.79
709.93	45509.47
710.12	46181.37
710.31	46322.35
710.51	45758.58
710.70	45770.38
710.89	45883.27
711.09	45186.38
711.28	45143.46
711.47	45419.36
711.66	45210.47
711.86	45168.44
712.05	45229.31
712.24	45354.48
712.43	45002.07
712.63	44575.19
712.82	45044.99
713.01	44868.29
713.21	44454.68
713.40	44617.78
713.59	45039.26
713.78	44388.90
713.98	44688.97
714.17	44484.83
714.36	44484.91
714.55	44051.32
714.75	44307.48
714.94	44288.14
715.13	44521.69
715.32	44060.74
715.52	44275.53
715.71	44028.62
715.90	44149.45
716.09	43813.67
716.29	44226.29
716.48	43935.97
716.67	43397.36
716.86	43735.19
717.06	43710.04
717.25	43834.31
717.44	43897.39
717.63	43902.80
717.82	43359.02
718.02	43533.02
718.21	43721.76
718.40	43695.63
718.59	43412.68
718.79	43176.42
718.98	43238.76
719.17	43493.61
719.36	43542.93
719.55	43181.67
719.75	43026.84
719.94	42919.44
720.13	43159.79
720.32	42833.02
720.51	42629.94
720.71	42470.45
720.90	42108.20
721.09	42467.25
721.28	42175.54
721.47	42662.47
721.67	42525.83
721.86	42432.03
722.05	42412.61
722.24	41875.06
722.43	42314.64
722.63	41841.23
722.82	41951.33
723.01	41963.78
723.20	41617.26
723.39	41628.00
723.58	41796.75
723.78	41136.57
723.97	41636.35
724.16	41219.79
724.35	41311.87
724.54	41148.61
724.73	41558.20
724.93	41243.71
725.12	41556.07
725.31	40887.61
725.50	41233.31
725.69	41448.43
725.88	41032.04
726.08	40661.93
726.27	41219.71
726.46	40601.06
726.65	41411.81
726.84	40646.53
727.03	40703.54
727.23	40878.69
727.42	40451.64
727.61	40297.88
727.80	40198.27
727.99	40386.76
728.18	40417.40
728.37	40289.53
728.56	40096.28
728.76	39976.68
728.95	40139.94
729.14	40061.55
729.33	39950.46
729.52	39848.88
729.71	39843.72
729.90	39856.09
730.09	39585.52
730.29	39884.03
730.48	39298.55
730.67	39847.16
730.86	39342.46
731.05	39723.30
731.24	39356.80
731.43	39514.00
731.62	39123.00
731.81	38921.40
732.01	39476.97
732.20	38911.08
732.39	39179.69
732.58	39189.27
732.77	38511.81
732.96	38980.55
733.15	39040.67
733.34	38766.90
733.53	38803.77
733.72	38941.96
733.92	38870.53
734.11	38860.94
734.30	38837.60
734.49	39159.46
734.68	38806.39
734.87	38626.00
735.06	38559.57
735.25	38519.10
735.44	38296.52
735.63	38389.26
735.82	38419.57
736.01	38251.22
736.20	38172.50
736.40	38520.90
736.59	38331.83
736.78	38402.20
736.97	37876.28
737.16	37930.92
737.35	38001.29
737.54	37928.05
737.73	37606.93
737.92	37814.43
738.11	38007.43
738.30	37722.27
738.49	37683.44
738.68	37549.67
738.87	37757.66
739.06	37548.69
739.25	37721.70
739.44	37560.16
739.63	37322.67
739.82	37025.72
740.01	37292.12
740.20	36906.28
740.39	36960.43
740.59	36841.57
740.78	36865.73
740.97	36740.07
741.16	36623.83
741.35	36797.08
741.54	36668.96
741.73	36752.19
741.92	36576.64
742.11	36639.39
742.30	36744.08
742.49	36431.23
742.68	36716.88
742.87	36510.53
743.06	36052.11
743.25	36348.25
743.44	36050.31
743.63	36236.68
743.82	35920.31
744.01	35921.37
744.20	35854.20
744.39	36051.38
744.58	35890.32
744.77	35597.63
744.96	35400.61
745.15	35798.66
745.34	35467.87
745.53	35609.43
745.72	35225.39
745.91	35275.61
746.10	34984.96
746.29	35379.32
746.48	35348.02
746.67	35236.61
746.86	35207.37
747.04	35089.00
747.23	34950.14
747.42	35127.74
747.61	34766.97
747.80	35326.89
747.99	34646.06
748.18	35024.85
748.37	34858.48
748.56	34487.47
748.75	34711.35
748.94	34506.80
749.13	34737.32
749.32	34441.84
749.51	34630.17
749.70	34606.33
749.89	34430.94
750.08	34463.30
750.27	34076.81
750.46	34287.50
750.65	34625.91
750.84	34185.02
751.02	34311.59
751.21	34071.81
751.40	34132.02
751.59	34123.09
751.78	33915.43
751.97	33962.12
752.16	33697.44
752.35	34001.03
752.54	33574.24
752.73	33938.94
752.92	33576.78
753.11	33582.51
753.30	33733.98
753.49	33709.73
753.67	33510.67
753.86	33340.85
754.05	33473.72
754.24	33225.34
754.43	33266.71
754.62	33310.54
754.81	32929.62
755.00	33114.26
755.19	33039.47
755.38	32604.65
755.56	32920.61
755.75	33268.60
755.94	32903.24
756.13	32914.95
756.32	32900.04
756.51	32805.76
756.70	32846.55
756.89	32767.50
757.08	32664.04
757.26	32729.08
757.45	32652.65
757.64	32382.07
757.83	32787.41
758.02	32564.42
758.21	32539.52
758.40	32666.99
758.59	32639.79
758.77	32367.74
758.96	32349.22
759.15	32415.00
759.34	32028.35
759.53	32162.37
759.72	32058.58
759.91	31736.55
760.09	31950.85
760.28	32008.52
760.47	31650.05
760.66	32034.00
760.85	31535.03
761.04	31920.46
761.23	31780.22
761.41	31707.64
761.60	31713.04
761.79	31550.02
761.98	31398.47
762.17	31841.41
762.36	31521.19
762.54	31864.10
762.73	31652.26
762.92	31457.37
763.11	31705.75
763.30	31656.03
763.49	31546.83
763.67	31318.77
763.86	31342.20
764.05	31479.90
764.24	31357.02
764.43	31588.12
764.61	31118.80
764.80	31149.52
764.99	31476.46
765.18	31059.08
765.37	31139.77
765.55	31078.58
765.74	30905.65
765.93	30676.11
766.12	31012.80
766.31	30952.59
766.49	31026.40
766.68	31147.15
766.87	31101.03
767.06	30905.73
767.25	30974.38
767.43	30926.79
767.62	30711.83
767.81	30832.09
768.00	30584.94
768.19	30403.73
768.37	30560.69
768.56	30548.81
768.75	30562.57
768.94	30636.88
769.12	30395.38
769.31	30331.32
769.50	30178.79
769.69	30404.06
769.88	29937.78
770.06	30489.83
770.25	30131.60
770.44	30115.54
770.63	30309.28
770.81	30192.63
771.00	29997.66
771.19	30013.80
771.38	29888.63
771.56	30034.61
771.75	29515.41
771.94	29923.04
772.13	29868.15
772.31	29728.07
772.50	29946.14
772.69	29697.43
772.88	30016.42
773.06	29546.29
773.25	29755.10
773.44	29727.90
773.62	29671.79
773.81	29736.18
774.00	29531.55
774.19	29512.62
774.37	29423.58
774.56	29658.36
774.75	29201.58
774.94	29518.36
775.12	29199.37
775.31	29502.96
775.50	29421.53
775.68	29283.09
775.87	29259.90
776.06	29171.76
776.25	29286.12
776.43	29141.78
776.62	29328.55
776.81	28943.37
776.99	29199.45
777.18	29102.54
777.37	28794.77
777.55	28967.94
777.74	28810.66
777.93	28857.60
778.12	28821.06
778.30	28662.80
778.49	28612.25
778.68	28857.52
778.86	28708.34
779.05	28807.79
779.24	28754.87
779.42	28601.19
779.61	28561.46
779.80	28649.77
779.98	28829.75
780.17	28995.55
780.36	28544.83
780.54	28812.14
780.73	28229.53
780.92	28590.30
781.10	28361.09
781.29	28279.91
781.48	28196.60
781.66	28247.06
781.85	28300.22
782.04	28158.01
782.22	28309.73
782.41	28029.24
782.60	28186.69
782.78	28096.90
782.97	28251.97
783.16	27833.12
783.34	27866.22
783.53	27947.24
783.71	27782.50
783.90	27816.41
784.09	27761.45
784.27	27823.13
784.46	27783.81
784.65	27891.45
784.83	27708.77
785.02	27747.76
785.20	28021.78
785.39	27518.72
785.58	27924.46
785.76	27888.26
785.95	27798.64
786.14	27904.56
786.32	27910.29
786.51	27784.38
786.69	27920.37
786.88	27792.90
787.07	27745.47
787.25	27768.82
787.44	27762.59
787.62	27637.91
787.81	27725.89
788.00	27671.83
788.18	27444.09
788.37	27523.88
788.55	27990.65
788.74	27720.90
788.93	27945.27
789.11	28188.08
789.30	27999.58
789.48	27835.66
789.67	27996.96
789.86	27947.56
790.04	28127.87
790.23	28002.86
790.41	27950.43
790.60	28166.62
790.78	28090.02
790.97	27766.61
791.16	27995.16
791.34	28213.96
791.53	27733.27
791.71	28172.43
791.90	27778.32
792.08	27910.70
792.27	27847.30
792.46	27824.69
792.64	27875.31
792.83	27602.44
793.01	27738.34
793.20	27676.09
793.38	27636.27
793.57	27654.13
793.75	27641.27
793.94	27786.43
794.12	28064.95
794.31	27655.44
794.50	27856.23
794.68	27856.39
794.87	27717.86
795.05	28032.43
795.24	27831.81
795.42	27734.33
795.61	28111.48
795.79	28134.99
795.98	27789.79
796.16	28068.48
796.35	28104.44
796.53	27842.54
796.72	28173.17
796.90	28129.18
797.09	28187.91
797.27	28182.67
797.46	28057.42
797.64	28127.29
797.83	27999.26
798.01	28069.05
798.20	28181.93
798.38	27935.69
798.57	28270.98
798.75	27979.35
798.94	27687.88
799.12	28455.22
799.31	27987.54
799.49	28054.63
799.68	27894.89
799.86	27944.21
800.05	27943.06
800.23	27923.40
800.42	27839.35
800.60	28200.86
800.79	27753.25
800.97	27934.29
801.16	28123.69
801.34	27760.13
801.53	27808.30
801.71	27953.79
801.90	27717.62
802.08	28093.22
802.27	27777.26
802.45	27604.49
802.64	27657.16
802.82	27739.74
803.00	27441.72
803.19	27609.16
803.37	27808.96
803.56	27504.30
803.74	27636.11
803.93	27694.35
804.11	27618.25
804.30	27544.36
804.48	27738.84
804.67	27850.49
804.85	27717.13
805.03	27857.54
805.22	27532.40
805.40	27401.00
805.59	27617.10
805.77	27716.06
805.96	27529.53
806.14	27430.17
806.32	27688.46
806.51	27769.88
806.69	27414.19
806.88	27231.43
807.06	27277.06
807.25	27136.90
807.43	27190.06
807.61	27241.92
807.80	27151.72
807.98	27354.72
808.17	27175.15
808.35	27146.40
808.53	27421.24
808.72	27176.14
808.90	27168.76
809.09	27274.11
809.27	27327.69
809.45	27011.32
809.64	27232.17
809.82	27029.42
810.01	27047.85
810.19	27078.73
810.37	26901.22
810.56	26803.16
810.74	26975.60
810.93	26632.85
811.11	26683.23
811.29	26596.97
811.48	26674.79
811.66	26696.58
811.84	26687.74
812.03	26695.35
812.21	26684.95
812.40	26796.52
812.58	26879.34
812.76	26536.10
812.95	26769.65
813.13	26414.21
813.31	26508.58
813.50	26563.63
813.68	26523.98
813.86	26595.99
814.05	26634.90
814.23	26218.51
814.42	26421.01
814.60	26254.22
814.78	26464.59
814.97	26434.85
815.15	26326.56
815.33	26535.45
815.52	26318.36
815.70	26354.33
815.88	26307.06
816.07	25983.40
816.25	26076.54
816.43	26026.57
816.62	25720.52
816.80	25880.34
816.98	25742.48
817.17	25653.18
817.35	25717.90
817.53	25651.79
817.72	25753.29
817.90	25455.84
818.08	25507.21
818.26	25641.47
818.45	25525.39
818.63	25668.67
818.81	25745.92
819.00	25372.45
819.18	25630.00
819.36	25570.86
819.55	25615.67
819.73	25356.06
819.91	25528.50
820.09	25420.62
820.28	25638.52
820.46	25394.32
820.64	25762.71
820.83	25394.73
821.01	25323.38
821.19	25245.88
821.38	25282.34
821.56	25156.67
821.74	25229.66
821.92	25079.51
822.11	25311.01
822.29	24931.40
822.47	24997.75
822.65	25048.21
822.84	25067.06
823.02	24839.81
823.20	25159.54
823.39	24880.77
823.57	24938.12
823.75	24996.36
823.93	24832.60
824.12	24950.73
824.30	24762.24
824.48	24810.90
824.66	25011.60
824.85	24529.91
825.03	24787.47
825.21	24912.07
825.39	24740.12
825.58	24771.00
825.76	24660.66
825.94	24749.29
826.12	24695.55
826.31	24522.95
826.49	24631.49
826.67	24604.62
826.85	24488.79
827.03	24466.51
827.22	24653.20
827.40	24462.74
827.58	24481.25
827.76	24581.20
827.95	24364.11
828.13	24523.69
828.31	24476.01
828.49	24493.62
828.67	24438.90
828.86	24325.77
829.04	24432.43
829.22	24289.97
829.40	24319.87
829.58	24188.40
829.77	24214.28
829.95	24164.39
830.13	24109.26
830.31	24010.47
830.49	23995.97
830.68	23977.95
830.86	23856.13
831.04	23769.87
831.22	23827.62
831.40	23771.18
831.59	23979.75
831.77	23725.88
831.95	24021.85
832.13	23706.96
832.31	23829.67
832.50	23767.33
832.68	23577.28
832.86	23632.58
833.04	23703.76
833.22	23333.41
833.40	23708.76
833.59	23424.58
833.77	23659.94
833.95	23175.47
834.13	23868.17
834.31	23474.96
834.49	23561.31
834.67	23498.64
834.86	23458.74
835.04	23365.36
835.22	23381.50
835.40	23216.51
835.58	23115.67
835.76	23224.62
835.95	23337.01
836.13	23232.16
836.31	23111.66
836.49	23336.28
836.67	23251.08
836.85	23183.83
837.03	23096.17
837.21	23078.07
837.40	22918.08
837.58	22788.32
837.76	22982.63
837.94	22895.96
838.12	23043.01
838.30	22869.59
838.48	22797.01
838.66	22756.46
838.85	22674.29
839.03	22699.03
839.21	22694.61
839.39	22672.90
839.57	22792.25
839.75	22634.40
839.93	22690.26
840.11	22682.48
840.29	22537.90
840.47	22550.68
840.66	22557.72
840.84	22446.97
841.02	22404.37
841.20	22363.00
841.38	22325.81
841.56	22258.47
841.74	22476.78
841.92	22156.56
842.10	22144.36
842.28	22264.37
842.46	22180.48
842.65	22139.03
842.83	22268.63
843.01	22374.14
843.19	22087.83
843.37	22234.14
843.55	22035.65
843.73	22168.93
843.91	22147.39
844.09	22110.69
844.27	22300.25
844.45	22087.59
844.63	22071.12
844.81	22063.18
844.99	22087.26
845.17	21976.75
845.35	22115.52
845.54	21932.19
845.72	21939.07
845.90	21850.84
846.08	21867.96
846.26	21643.51
846.44	21831.18
846.62	21519.15
846.80	21497.94
846.98	21506.95
847.16	21459.03
847.34	21509.16
847.52	21490.24
847.70	21487.78
847.88	21545.04
848.06	21455.83
848.24	21543.07
848.42	21540.21
848.60	21465.58
848.78	21589.36
848.96	21584.77
849.14	21457.14
849.32	21664.15
849.50	21407.58
849.68	21548.07
849.86	21454.27
850.04	21259.88
850.22	21253.16
850.40	21042.96
850.58	21290.03
850.76	21541.11
850.94	20947.44
851.12	21228.42
851.30	21028.30
851.48	21221.71
851.66	21054.51
851.84	20963.17
852.02	20977.26
852.20	21104.32
852.38	20890.84
852.56	20917.71
852.74	21016.83
852.92	20873.06
853.10	20812.03
853.28	20871.67
853.46	20524.66
853.64	20746.25
853.82	20606.50
854.00	20647.87
854.18	20474.94
854.36	20537.77
854.54	20663.51
854.72	20447.17
854.90	20395.64
855.07	20516.88
855.25	20382.04
855.43	20432.34
855.61	20334.77
855.79	20269.57
855.97	20367.46
856.15	20335.84
856.33	20241.55
856.51	20384.42
856.69	20093.19
856.87	20306.76
857.05	20187.73
857.23	20241.14
857.41	19960.08
857.59	20014.31
857.77	19954.34
857.94	19924.28
858.12	20028.81
858.30	19838.35
858.48	19828.35
858.66	19709.90
858.84	19921.90
859.02	19668.86
859.20	19673.53
859.38	19928.37
859.56	19823.44
859.74	19809.02
859.92	19853.01
860.09	19689.09
860.27	19830.73
860.45	19689.42
860.63	19671.64
860.81	19835.81
860.99	19646.33
861.17	19496.83
861.35	19211.09
861.53	19042.42
861.70	18962.14
861.88	19314.72
862.06	19284.25
862.24	19058.89
862.42	19133.03
862.60	19352.57
862.78	19296.94
862.96	19387.46
863.14	19212.24
863.31	19199.54
863.49	19183.81
863.67	19055.61
863.85	19003.02
864.03	19057.91
864.21	19049.14
864.39	18997.53
864.56	18877.93
864.74	18932.08
864.92	18798.88
865.10	18791.34
865.28	18787.08
865.46	18966.65
865.64	18561.23
865.81	18763.74
865.99	18519.21
866.17	18785.36
866.35	18658.47
866.53	18705.33
866.71	18764.64
866.88	18793.80
867.06	18607.76
867.24	18690.34
867.42	18578.68
867.60	18676.00
867.78	18499.96
867.95	18700.17
868.13	18417.38
868.31	18706.72
868.49	18618.25
868.67	18470.47
868.84	18389.53
869.02	18446.22
869.20	18126.65
869.38	18313.26
869.56	18152.62
869.73	18148.36
869.91	18213.49
870.09	18185.96
870.27	18079.71
870.45	18056.86
870.62	17911.78
870.80	18029.66
870.98	17980.43
871.16	17934.72
871.34	17964.13
871.51	17988.62
871.69	17847.15
871.87	17893.59
872.05	17820.85
872.23	17844.36
872.40	17662.83
872.58	17787.84
872.76	17648.25
872.94	17664.14
873.11	17677.82
873.29	17631.45
873.47	17639.56
873.65	17584.60
873.83	17570.43
874.00	17635.22
874.18	17624.49
874.36	17543.06
874.54	17580.17
874.71	17450.41
874.89	17300.01
875.07	17411.50
875.25	17331.55
875.42	17309.76
875.60	17327.54
875.78	17468.60
875.96	17207.36
876.13	17260.12
876.31	17021.82
876.49	17047.54
876.66	16858.06
876.84	17109.06
877.02	16898.94
877.20	16995.60
877.37	17010.10
877.55	16968.32
877.73	16983.64
877.91	16955.46
878.08	17079.49
878.26	17015.34
878.44	17010.59
878.61	17032.46
878.79	16939.73
878.97	16943.50
879.15	17054.58
879.32	17061.63
879.50	16972.50
879.68	17093.58
879.85	16871.17
880.03	17058.84
880.21	16877.56
880.38	16960.38
880.56	16751.57
880.74	16955.79
880.92	16686.03
881.09	16847.66
881.27	16747.31
881.45	16798.18
881.62	16714.70
881.80	16660.88
881.98	16631.06
882.15	16736.08
882.33	16618.45
882.51	16654.57
882.68	16516.70
882.86	16691.52
883.04	16553.98
883.21	16580.85
883.39	16736.82
883.57	16566.10
883.74	16567.82
883.92	16598.70
884.10	16610.91
884.27	16573.39
884.45	16455.43
884.63	16638.11
884.80	16583.06
884.98	16648.10
885.16	16579.78
885.33	16548.16
885.51	16608.29
885.69	16579.29
885.86	16512.69
886.04	16614.02
886.21	16393.91
886.39	16577.32
886.57	16266.11
886.74	16480.41
886.92	16458.95
887.10	16504.74
887.27	16504.58
887.45	16544.97
887.62	16564.05
887.80	16499.91
887.98	16708.72
888.15	16664.40
888.33	16562.58
888.51	16696.52
888.68	16506.46
888.86	16561.19
889.03	16441.09
889.21	16509.41
889.39	16544.15
889.56	16484.35
889.74	16478.37
889.91	16568.89
890.09	16523.42
890.27	16526.70
890.44	16531.29
890.62	16495.00
890.79	16487.05
890.97	16593.71
891.14	16523.91
891.32	16557.25
891.50	16456.66
891.67	16499.01
891.85	16515.56
892.02	16465.10
892.20	16627.79
892.38	16511.63
892.55	16488.28
892.73	16571.92
892.90	16362.45
893.08	16375.72
893.25	16382.93
893.43	16581.01
893.60	16338.94
893.78	16468.95
893.96	16414.96
894.13	16504.01
894.31	16578.63
894.48	16482.79
894.66	16532.84
894.83	16532.51
895.01	16506.05
895.18	16588.79
895.36	16498.03
895.53	16585.93
895.71	16478.37
895.89	16595.18
896.06	16449.94
896.24	16559.88
896.41	16464.77
896.59	16548.41
896.76	16342.22
896.94	16539.40
897.11	16505.07
897.29	16509.41
897.46	16328.13
897.64	16352.78
897.81	16315.35
897.99	16168.55
898.16	16355.82
898.34	16256.78
898.51	16228.92
898.69	16116.94
898.86	16178.13
899.04	16164.29
899.21	16074.67
899.39	16168.55
899.56	16011.18
899.74	16270.21
899.91	16092.12
900.09	16094.82
900.26	16157.33
900.44	16055.58
900.61	16078.27
900.79	16234.41
900.96	16087.61
901.14	16109.73
901.31	16024.04
901.49	15955.56
901.66	16051.73
901.84	16025.77
902.01	15936.06
902.19	15971.45
902.36	15891.01
902.54	15882.24
902.71	15873.89
902.88	15940.82
903.06	15674.83
903.23	15967.36
903.41	15763.22
903.58	15683.75
903.76	15630.67
903.93	15743.06
904.11	15818.35
904.28	15672.20
904.45	15650.41
904.63	15624.61
904.80	15487.31
904.98	15609.29
905.15	15361.57
905.33	15518.36
905.50	15376.64
905.68	15457.49
905.85	15396.79
906.02	15332.08
906.20	15441.93
906.37	15201.74
906.55	15169.47
906.72	15312.09
906.90	15143.01
907.07	15074.11
907.24	15176.43
907.42	15074.28
907.59	15099.76
907.77	15005.39
907.94	14931.08
908.11	14998.09
908.29	14895.53
908.46	14891.44
908.64	14765.94
908.81	14848.92
908.98	14710.89
909.16	14858.67
909.33	14717.69
909.51	14726.62
909.68	14663.29
909.85	14708.51
910.03	14725.06
910.20	14587.03
910.37	14575.23
910.55	14562.12
910.72	14492.16
910.90	14405.74
911.07	14408.36
911.24	14280.98
911.42	14405.17
911.59	14197.99
911.76	14266.81
911.94	14152.20
912.11	14185.13
912.29	14160.64
912.46	14107.56
912.63	14094.20
912.81	13950.93
912.98	14043.50
913.15	13914.88
913.33	13988.61
913.50	13964.28
913.67	13846.73
913.85	13839.93
914.02	13808.96
914.19	13761.29
914.37	13669.54
914.54	13745.97
914.71	13676.91
914.89	13653.81
915.06	13655.04
915.23	13588.27
915.41	13553.62
915.58	13521.43
915.75	13435.99
915.93	13443.77
916.10	13365.70
916.27	13296.81
916.45	13287.39
916.62	13179.42
916.79	13282.96
916.97	13163.11
917.14	13127.81
917.31	13077.76
917.49	13072.27
917.66	13008.94
917.83	13000.01
918.00	12963.89
918.18	12932.84
918.35	12886.39
918.52	12950.86
918.70	12879.92
918.87	12883.03
919.04	12901.88
919.21	12916.21
919.39	12805.95
919.56	12889.18
919.73	12766.46
919.91	12796.61
920.08	12758.60
920.25	12691.10
920.42	12785.06
920.60	12630.48
920.77	12517.27
920.94	12548.97
921.11	12405.69
921.29	12437.81
921.46	12301.98
921.63	12426.83
921.81	12295.10
921.98	12321.48
922.15	12274.30
922.32	12286.91
922.50	12197.87
922.67	12176.16
922.84	12144.78
923.01	12071.96
923.19	12008.72
923.36	12051.64
923.53	11883.46
923.70	11904.11
923.87	11894.93
924.05	11902.14
924.22	11815.06
924.39	11862.16
924.56	11714.22
924.74	11814.32
924.91	11758.78
925.08	11697.18
925.25	11672.52
925.43	11630.00
925.60	11558.90
925.77	11643.28
925.94	11556.11
926.11	11537.60
926.29	11420.37
926.46	11461.58
926.63	11447.74
926.80	11400.22
926.97	11325.76
927.15	11362.05
927.32	11248.18
927.49	11265.38
927.66	11269.48
927.83	11333.30
928.01	11162.66
928.18	11196.82
928.35	11089.51
928.52	11169.54
928.69	11013.16
928.87	11060.34
929.04	11040.44
929.21	11041.01
929.38	10945.66
929.55	11016.68
929.72	10928.13
929.90	10926.65
930.07	10885.77
930.24	10796.24
930.41	10779.11
930.58	10766.91
930.75	10785.59
930.93	10686.96
931.10	10670.24
931.27	10553.67
931.44	10534.59
931.61	10486.83
931.78	10530.49
931.95	10459.14
932.13	10391.07
932.30	10496.74
932.47	10320.94
932.64	10359.77
932.81	10378.94
932.98	10350.76
933.15	10326.51
933.33	10223.46
933.50	10290.14
933.67	10196.10
933.84	10184.79
934.01	10210.84
934.18	10161.45
934.35	10169.97
934.52	10115.00
934.70	10138.35
934.87	10076.66
935.04	10048.89
935.21	10030.79
935.38	10036.44
935.55	9943.05
935.72	10007.11
935.89	9864.74
936.06	9941.17
936.24	9854.09
936.41	9929.70
936.58	9853.35
936.75	9818.29
936.92	9791.26
937.09	9811.57
937.26	9715.89
937.43	9736.37
937.60	9720.97
937.77	9687.38
937.94	9670.43
938.12	9648.96
938.29	9552.05
938.46	9633.32
938.63	9465.47
938.80	9563.93
938.97	9474.31
939.14	9462.35
939.31	9364.79
939.48	9431.72
939.65	9315.80
939.82	9355.37
939.99	9315.14
940.16	9278.69
940.33	9256.16
940.50	9267.55
940.67	9213.24
940.85	9222.25
941.02	9164.58
941.19	9225.53
941.36	9176.70
941.53	9224.54
941.70	9158.76
941.87	9094.70
942.04	9099.53
942.21	9112.89
942.38	9126.40
942.55	9042.60
942.72	9047.52
942.89	9038.59
943.06	8982.64
943.23	8977.48
943.40	8927.59
943.57	8952.49
943.74	8877.62
943.91	8919.07
944.08	8911.53
944.25	8943.64
944.42	8809.95
944.59	8776.12
944.76	8820.60
944.93	8744.34
945.10	8695.51
945.27	8675.36
945.44	8575.34
945.61	8615.97
945.78	8576.40
945.95	8583.45
946.12	8470.97
946.29	8534.05
946.46	8510.21
946.63	8472.53
946.80	8510.87
946.97	8430.83
947.14	8382.99
947.31	8449.10
947.48	8389.71
947.65	8336.05
947.82	8349.32
947.99	8371.77
948.16	8244.30
948.33	8345.47
948.50	8222.35
948.67	8252.58
948.84	8241.68
949.01	8199.00
949.18	8159.19
949.35	8210.47
949.52	8124.05
949.68	8135.43
949.85	8119.79
950.02	8126.26
950.19	8068.01
950.36	8074.32
950.53	8023.53
950.70	8017.63
950.87	7966.35
951.04	8023.61
951.21	7915.64
951.38	7889.02
951.55	7874.36
951.72	7887.22
951.89	7866.17
952.06	7913.92
952.23	7863.05
952.39	7842.82
952.56	7807.76
952.73	7844.79
952.90	7770.98
953.07	7844.46
953.24	7753.36
953.41	7785.56
953.58	7710.27
953.75	7772.37
953.92	7709.29
954.09	7672.92
954.25	7648.26
954.42	7647.20
954.59	7612.22
954.76	7585.43
954.93	7563.48
955.10	7597.31
955.27	7487.87
955.44	7573.63
955.61	7483.85
955.77	7543.00
955.94	7475.99
956.11	7492.37
956.28	7483.11
956.45	7458.62
956.62	7474.18
956.79	7480.82
956.96	7453.62
957.12	7427.41
957.29	7414.96
957.46	7395.79
957.63	7333.94
957.80	7312.23
957.97	7290.69
958.14	7373.83
958.30	7243.99
958.47	7262.18
958.64	7234.90
958.81	7281.59
958.98	7206.64
959.15	7214.09
959.32	7213.36
959.48	7201.72
959.65	7141.84
959.82	7161.01
959.99	7131.93
960.16	7188.37
960.33	7142.33
960.49	7123.49
960.66	7114.40
960.83	7080.65
961.00	7071.88
961.17	7076.96
961.33	7021.99
961.50	7003.89
961.67	6945.81
961.84	6984.47
962.01	6953.51
962.18	6972.27
962.34	6911.65
962.51	6903.54
962.68	6806.47
962.85	6901.65
963.02	6786.89
963.18	6843.16
963.35	6787.30
963.52	6799.83
963.69	6796.14
963.86	6770.09
964.02	6743.88
964.19	6766.73
964.36	6740.19
964.53	6739.70
964.69	6705.38
964.86	6763.46
965.03	6642.96
965.20	6725.86
965.37	6623.21
965.53	6629.36
965.70	6611.25
965.87	6651.39
966.04	6557.84
966.20	6575.13
966.37	6569.23
966.54	6511.89
966.71	6548.26
966.87	6499.11
967.04	6495.01
967.21	6489.93
967.38	6436.85
967.54	6452.41
967.71	6429.72
967.88	6430.21
968.05	6370.58
968.21	6367.79
968.38	6371.72
968.55	6338.38
968.72	6323.23
968.88	6286.77
969.05	6316.43
969.22	6276.12
969.39	6288.17
969.55	6281.86
969.72	6253.60
969.89	6241.80
970.05	6275.71
970.22	6270.63
970.39	6229.10
970.56	6277.60
970.72	6236.80
970.89	6246.80
971.06	6224.02
971.22	6214.68
971.39	6218.21
971.56	6225.58
971.73	6144.32
971.89	6193.22
972.06	6152.59
972.23	6173.81
972.39	6074.28
972.56	6158.08
972.73	6093.28
972.89	6120.56
973.06	6122.53
973.23	6080.34
973.39	6044.21
973.56	6063.95
973.73	6026.68
973.89	6041.51
974.06	6009.81
974.23	5995.39
974.39	5991.29
974.56	5965.00
974.73	5926.49
974.89	5927.15
975.06	5898.40
975.23	5943.94
975.39	5881.19
975.56	5905.77
975.73	5865.79
975.89	5863.42
976.06	5851.78
976.23	5817.62
976.39	5821.72
976.56	5810.09
976.73	5817.87
976.89	5792.64
977.06	5775.11
977.23	5747.83
977.39	5769.78
977.56	5787.81
977.72	5699.01
977.89	5766.59
978.06	5703.43
978.22	5687.70
978.39	5696.55
978.56	5718.67
978.72	5678.36
978.89	5689.67
979.05	5678.53
979.22	5669.60
979.39	5598.16
979.55	5630.03
979.72	5581.70
979.88	5608.65
980.05	5558.43
980.22	5581.70
980.38	5563.68
980.55	5564.17
980.71	5552.04
980.88	5552.04
981.05	5537.13
981.21	5512.39
981.38	5515.59
981.54	5527.96
981.71	5467.91
981.88	5489.87
982.04	5478.64
982.21	5474.79
982.37	5419.25
982.54	5428.43
982.70	5409.75
982.87	5429.17
983.04	5363.14
983.20	5414.34
983.37	5358.22
983.53	5411.06
983.70	5367.32
983.86	5385.67
984.03	5360.84
984.20	5361.75
984.36	5350.44
984.53	5331.44
984.69	5273.93
984.86	5256.40
985.02	5266.15
985.19	5282.61
985.35	5257.30
985.52	5240.83
985.68	5229.04
985.85	5212.82
986.02	5209.54
986.18	5220.60
986.35	5213.31
986.51	5212.08
986.68	5205.69
986.84	5203.97
987.01	5191.68
987.17	5211.43
987.34	5183.82
987.50	5190.29
987.67	5127.70
987.83	5161.86
988.00	5137.12
988.16	5130.33
988.33	5097.48
988.49	5099.93
988.66	5076.75
988.82	5100.75
988.99	5057.75
989.15	5093.13
989.32	5059.14
989.48	5060.37
989.65	5003.60
989.81	5036.28
989.98	5008.84
990.14	5016.46
990.31	5028.34
990.47	4985.90
990.64	4973.70
990.80	4969.52
990.97	4944.62
991.13	4962.06
991.30	4942.32
991.46	4918.89
991.63	4915.86
991.79	4927.74
991.95	4876.46
992.12	4916.44
992.28	4883.01
992.45	4877.11
992.61	4864.91
992.78	4878.92
992.94	4864.17
993.11	4882.69
993.27	4835.91
993.44	4856.88
993.60	4843.94
993.76	4844.76
993.93	4850.98
994.09	4867.94
994.26	4832.39
994.42	4825.51
994.59	4795.52
994.75	4813.38
994.91	4792.57
995.08	4774.22
995.24	4751.78
995.41	4766.69
995.57	4733.76
995.74	4713.03
995.90	4740.97
996.06	4725.40
996.23	4700.91
996.39	4707.38
996.56	4680.18
996.72	4687.31
996.88	4695.99
997.05	4704.18
997.21	4660.77
997.38	4693.13
997.54	4633.32
997.70	4649.79
997.87	4661.42
998.03	4641.43
998.20	4619.23
998.36	4630.54
998.52	4611.21
998.69	4629.06
998.85	4593.68
999.02	4579.91
999.18	4567.13
999.34	4586.71
999.51	4565.66
999.67	4590.56
999.83	4550.42
1000.00	4550.75
1000.16	4557.47
1000.33	4546.82
1000.49	4522.32
1000.65	4535.76
1000.82	4537.81
1000.98	4519.70
1001.14	4519.70
1001.31	4543.05
1001.47	4517.41
1001.63	4508.89
1001.80	4502.50
1001.96	4473.99
1002.12	4448.43
1002.29	4495.21
1002.45	4458.35
1002.61	4453.10
1002.78	4419.19
1002.94	4466.95
1003.10	4412.31
1003.27	4456.05
1003.43	4408.62
1003.59	4414.44
1003.76	4392.65
1003.92	4398.87
1004.08	4389.29
1004.25	4426.32
1004.41	4370.53
1004.57	4376.26
1004.74	4344.64
1004.90	4394.45
1005.06	4346.77
1005.23	4344.32
1005.39	4328.67
1005.55	4334.98
1005.71	4367.74
1005.88	4319.99
1006.04	4332.44
1006.20	4325.72
1006.37	4287.79
1006.53	4292.95
1006.69	4300.08
1006.85	4287.79
1007.02	4264.36
1007.18	4284.68
1007.34	4260.27
1007.51	4280.83
1007.67	4232.99
1007.83	4242.82
1007.99	4226.52
1008.16	4222.17
1008.32	4217.59
1008.48	4235.20
1008.64	4231.27
1008.81	4240.28
1008.97	4187.28
1009.13	4205.05
1009.29	4181.95
1009.46	4197.35
1009.62	4187.28
1009.78	4178.43
1009.95	4169.09
1010.11	4183.43
1010.27	4154.35
1010.43	4144.76
1010.59	4153.69
1010.76	4172.94
1010.92	4133.95
1011.08	4155.66
1011.24	4136.32
1011.41	4164.67
1011.57	4144.35
1011.73	4143.94
1011.89	4112.98
1012.06	4135.59
1012.22	4080.29
1012.38	4116.99
1012.54	4074.72
1012.70	4080.21
1012.87	4073.66
1013.03	4098.97
1013.19	4059.16
1013.35	4090.45
1013.51	4051.95
1013.68	4069.97
1013.84	4047.44
1014.00	4054.73
1014.16	4013.45
1014.32	4029.67
1014.49	4013.85
1014.65	4056.94
1014.81	4023.11
1014.97	4030.32
1015.13	4004.35
1015.30	4022.62
1015.46	3998.21
1015.62	4008.04
1015.78	3986.90
1015.94	3996.73
1016.10	3966.75
1016.27	3980.68
1016.43	3983.30
1016.59	3961.10
1016.75	3953.64
1016.91	3973.31
1017.07	3947.50
1017.24	3963.39
1017.40	3932.18
1017.56	3936.85
1017.72	3914.41
1017.88	3935.13
1018.04	3928.91
1018.21	3946.93
1018.37	3933.08
1018.53	3930.22
1018.69	3930.63
1018.85	3901.63
1019.01	3886.55
1019.17	3913.34
1019.34	3882.78
1019.50	3890.32
1019.66	3868.69
1019.82	3883.93
1019.98	3868.20
1020.14	3891.06
1020.30	3871.97
1020.46	3883.44
1020.63	3837.89
1020.79	3849.77
1020.95	3844.77
1021.11	3863.45
1021.27	3829.37
1021.43	3850.02
1021.59	3841.42
1021.75	3824.70
1021.91	3787.02
1022.07	3804.14
1022.24	3784.24
1022.40	3791.53
1022.56	3781.62
1022.72	3816.84
1022.88	3771.70
1023.04	3812.01
1023.20	3769.49
1023.36	3772.85
1023.52	3768.92
1023.68	3785.22
1023.84	3752.86
1024.01	3770.56
1024.17	3769.98
1024.33	3783.42
1024.49	3758.43
1024.65	3749.91
1024.81	3742.79
1024.97	3748.27
1025.13	3732.79
1025.29	3746.55
1025.45	3720.34
1025.61	3757.86
1025.77	3706.00
1025.93	3758.68
1026.09	3709.53
1026.25	3730.42
1026.41	3708.46
1026.57	3720.01
1026.73	3721.40
1026.90	3730.58
1027.06	3723.37
1027.22	3725.83
1027.38	3711.25
1027.54	3737.62
1027.70	3718.62
1027.86	3718.21
1028.02	3667.34
1028.18	3690.85
1028.34	3687.98
1028.50	3711.08
1028.66	3676.27
1028.82	3677.99
1028.98	3680.69
1029.14	3664.06
1029.30	3668.40
1029.46	3672.58
1029.62	3666.19
1029.78	3637.52
1029.94	3637.77
1030.10	3636.05
1030.26	3640.63
1030.42	3641.62
1030.58	3630.56
1030.74	3637.85
1030.90	3630.64
1031.06	3618.68
1031.22	3612.29
1031.38	3601.56
1031.54	3606.06
1031.70	3624.17
1031.86	3592.71
1032.02	3594.10
1032.18	3587.71
1032.34	3602.95
1032.50	3577.47
1032.66	3588.61
1032.82	3579.77
1032.98	3594.19
1033.14	3576.90
1033.30	3585.83
1033.45	3563.06
1033.61	3587.55
1033.77	3565.92
1033.93	3578.46
1034.09	3575.02
1034.25	3602.46
1034.41	3577.88
1034.57	3589.11
1034.73	3564.12
1034.89	3557.65
1035.05	3552.16
1035.21	3542.90
1035.37	3541.51
1035.53	3546.43
1035.69	3530.78
1035.85	3560.93
1036.01	3535.53
1036.16	3553.39
1036.32	3537.17
1036.48	3544.13
1036.64	3518.49
1036.80	3542.00
1036.96	3524.80
1037.12	3522.34
1037.28	3523.08
1037.44	3507.43
1037.60	3511.12
1037.76	3486.63
1037.91	3495.72
1038.07	3513.33
1038.23	3503.17
1038.39	3498.34
1038.55	3481.79
1038.71	3516.20
1038.87	3479.99
1039.03	3517.92
1039.19	3482.53
1039.35	3502.60
1039.50	3481.96
1039.66	3499.24
1039.82	3472.21
1039.98	3492.11
1040.14	3473.85
1040.30	3463.44
1040.46	3482.20
1040.62	3449.68
1040.77	3475.24
1040.93	3511.20
1041.09	3461.97
1041.25	3462.79
1041.41	3476.88
1041.57	3462.46
1041.73	3462.46
1041.88	3462.46

