SpectraSuite Data File
++++++++++++++++++++++++++++++++++++
Date: Tue Sep 20 12:08:36 EDT 2022
User: Laboratoire
Dark Spectrum Present: No
Reference Spectrum Present: No
Number of Sampled Component Spectra: 1
Spectrometers: FLMT00174
Integration Time (usec): 15000 (FLMT00174)
Spectra Averaged: 25 (FLMT00174)
Boxcar Smoothing: 0 (FLMT00174)
Correct for Electrical Dark: No (FLMT00174)
Strobe/Lamp Enabled: No (FLMT00174)
Correct for Detector Non-linearity: No (FLMT00174)
Correct for Stray Light: No (FLMT00174)
Number of Pixels in Processed Spectrum: 3648
>>>>>Begin Processed Spectral Data<<<<<
345.74	3173.70
345.96	3173.70
346.18	3173.70
346.39	3163.21
346.61	3221.21
346.83	3215.15
347.05	3210.56
347.27	3205.40
347.49	3218.92
347.71	3215.88
347.93	3227.60
348.15	3211.13
348.36	3235.95
348.58	3217.69
348.80	3220.96
349.02	3225.63
349.24	3222.52
349.46	3322.71
349.68	3347.61
349.90	3331.72
350.11	3324.10
350.33	3336.55
350.55	3316.48
350.77	3333.93
350.99	3325.41
351.21	3341.79
351.43	3322.62
351.65	3353.75
351.86	3320.99
352.08	3350.56
352.30	3316.07
352.52	3343.35
352.74	3320.74
352.96	3337.29
353.18	3333.68
353.39	3338.43
353.61	3331.47
353.83	3354.74
354.05	3378.25
354.27	3339.99
354.49	3331.72
354.70	3343.02
354.92	3333.36
355.14	3336.63
355.36	3324.75
355.58	3342.45
355.80	3333.44
356.02	3342.53
356.23	3349.99
356.45	3357.85
356.67	3353.43
356.89	3373.50
357.11	3357.85
357.33	3360.55
357.54	3328.69
357.76	3318.94
357.98	3329.83
358.20	3333.60
358.42	3330.73
358.63	3347.28
358.85	3329.83
359.07	3351.46
359.29	3309.60
359.51	3313.94
359.73	3331.72
359.94	3329.67
360.16	3331.55
360.38	3337.29
360.60	3341.71
360.82	3357.60
361.03	3335.24
361.25	3361.13
361.47	3350.07
361.69	3369.89
361.91	3343.10
362.12	3352.69
362.34	3343.19
362.56	3347.61
362.78	3335.16
363.00	3364.89
363.21	3348.35
363.43	3349.58
363.65	3314.92
363.87	3357.93
364.09	3360.63
364.30	3352.12
364.52	3359.57
364.74	3335.32
364.96	3347.94
365.17	3345.40
365.39	3350.07
365.61	3352.44
365.83	3366.29
366.05	3323.36
366.26	3344.25
366.48	3343.02
366.70	3366.86
366.92	3358.67
367.13	3358.67
367.35	3344.17
367.57	3353.75
367.79	3352.20
368.01	3351.87
368.22	3375.05
368.44	3353.26
368.66	3355.97
368.88	3369.73
369.09	3356.70
369.31	3372.76
369.53	3376.12
369.75	3345.64
369.96	3356.29
370.18	3361.95
370.40	3349.90
370.62	3374.97
370.83	3360.14
371.05	3377.51
371.27	3393.57
371.49	3337.78
371.70	3354.41
371.92	3364.16
372.14	3385.29
372.36	3351.79
372.57	3377.10
372.79	3377.51
373.01	3371.94
373.22	3342.37
373.44	3358.18
373.66	3356.29
373.88	3377.35
374.09	3339.91
374.31	3364.57
374.53	3359.24
374.75	3383.82
374.96	3357.44
375.18	3379.64
375.40	3375.05
375.61	3387.01
375.83	3368.58
376.05	3394.47
376.27	3370.06
376.48	3370.96
376.70	3375.79
376.92	3378.66
377.13	3360.80
377.35	3383.90
377.57	3371.53
377.79	3383.41
378.00	3371.12
378.22	3384.72
378.44	3378.08
378.65	3400.37
378.87	3394.30
379.09	3392.99
379.30	3371.37
379.52	3396.68
379.74	3380.54
379.96	3408.23
380.17	3390.86
380.39	3403.64
380.61	3393.32
380.82	3399.38
381.04	3381.20
381.26	3418.06
381.47	3402.09
381.69	3436.74
381.91	3416.01
382.12	3421.01
382.34	3423.96
382.56	3403.72
382.77	3427.81
382.99	3428.55
383.21	3414.95
383.42	3435.43
383.64	3417.40
383.86	3434.36
384.07	3452.55
384.29	3436.57
384.51	3428.30
384.72	3423.22
384.94	3450.17
385.16	3430.76
385.37	3444.68
385.59	3428.14
385.81	3455.66
386.02	3433.38
386.24	3441.49
386.46	3425.84
386.67	3446.08
386.89	3472.13
387.11	3481.22
387.32	3450.58
387.54	3466.72
387.76	3466.80
387.97	3481.63
388.19	3462.46
388.40	3467.78
388.62	3469.01
388.84	3491.13
389.05	3492.85
389.27	3490.07
389.49	3484.00
389.70	3501.70
389.92	3485.64
390.14	3479.58
390.35	3502.60
390.57	3504.81
390.78	3491.05
391.00	3471.63
391.22	3510.22
391.43	3488.67
391.65	3522.83
391.86	3544.13
392.08	3547.33
392.30	3531.19
392.51	3515.79
392.73	3562.89
392.95	3534.14
393.16	3520.05
393.38	3555.27
393.59	3539.55
393.81	3579.36
394.03	3557.32
394.24	3557.65
394.46	3573.79
394.67	3559.21
394.89	3555.93
395.11	3587.96
395.32	3592.30
395.54	3607.87
395.75	3613.76
395.97	3585.58
396.19	3598.28
396.40	3610.90
396.62	3614.58
396.83	3611.63
397.05	3626.05
397.26	3627.03
397.48	3631.62
397.70	3629.49
397.91	3650.30
398.13	3635.14
398.34	3649.32
398.56	3656.53
398.78	3660.54
398.99	3700.35
399.21	3656.20
399.42	3706.25
399.64	3661.36
399.85	3697.89
400.07	3712.07
400.29	3707.31
400.50	3717.55
400.72	3737.79
400.93	3729.68
401.15	3725.91
401.36	3736.48
401.58	3746.06
401.79	3745.24
402.01	3757.61
402.23	3770.23
402.44	3780.39
402.66	3784.97
402.87	3788.17
403.09	3763.68
403.30	3804.80
403.52	3775.47
403.73	3790.30
403.95	3802.83
404.16	3800.70
404.38	3828.39
404.60	3824.05
404.81	3846.82
405.03	3856.00
405.24	3863.78
405.46	3871.81
405.67	3852.72
405.89	3886.88
406.10	3886.06
406.32	3884.10
406.53	3921.45
406.75	3928.17
406.96	3937.42
407.18	3918.42
407.39	3895.73
407.61	3935.62
407.82	3959.95
408.04	3964.21
408.25	3976.09
408.47	3978.55
408.68	3993.05
408.90	3977.65
409.12	4019.34
409.33	4025.24
409.55	3995.59
409.76	4001.81
409.98	4008.04
410.19	4038.02
410.41	4060.55
410.62	4068.90
410.84	4041.87
411.05	4096.35
411.27	4101.67
411.48	4113.63
411.70	4107.82
411.91	4132.06
412.12	4141.98
412.34	4115.27
412.55	4144.02
412.77	4143.29
412.98	4156.23
413.20	4170.57
413.41	4192.27
413.63	4208.25
413.84	4202.92
414.06	4232.00
414.27	4208.41
414.49	4259.12
414.70	4263.38
414.92	4267.97
415.13	4263.13
415.35	4293.12
415.56	4284.60
415.78	4294.43
415.99	4315.64
416.21	4329.73
416.42	4356.44
416.63	4376.35
416.85	4371.18
417.06	4382.08
417.28	4336.29
417.49	4409.52
417.71	4396.25
417.92	4408.05
418.14	4417.39
418.35	4462.85
418.57	4472.52
418.78	4459.41
418.99	4447.04
419.21	4512.90
419.42	4499.22
419.64	4510.86
419.85	4536.25
420.07	4563.94
420.28	4548.21
420.50	4567.79
420.71	4582.78
420.92	4585.07
421.14	4621.12
421.35	4611.62
421.57	4628.74
421.78	4650.61
422.00	4666.99
422.21	4690.34
422.42	4698.61
422.64	4667.73
422.85	4712.46
423.07	4759.73
423.28	4729.74
423.50	4752.68
423.71	4818.71
423.92	4828.21
424.14	4804.86
424.35	4844.27
424.57	4878.34
424.78	4884.16
424.99	4901.53
425.21	4913.73
425.42	4915.45
425.64	4934.46
425.85	4955.84
426.06	4947.89
426.28	4979.60
426.49	5029.32
426.71	5012.12
426.92	5016.05
427.13	5066.84
427.35	5115.58
427.56	5119.27
427.78	5105.83
427.99	5173.91
428.20	5181.12
428.42	5199.06
428.63	5198.40
428.84	5162.44
429.06	5209.87
429.27	5283.60
429.49	5273.27
429.70	5340.37
429.91	5299.82
430.13	5332.58
430.34	5356.50
430.56	5369.77
430.77	5432.36
430.98	5407.70
431.20	5441.13
431.41	5494.45
431.62	5490.11
431.84	5474.47
432.05	5532.06
432.26	5524.76
432.48	5521.32
432.69	5611.11
432.91	5601.19
433.12	5621.43
433.33	5635.76
433.55	5729.23
433.76	5735.13
433.97	5707.93
434.19	5721.29
434.40	5795.01
434.61	5826.23
434.83	5863.74
435.04	5786.33
435.25	5895.04
435.47	5907.16
435.68	5847.93
435.89	5975.73
436.11	5964.50
436.32	6010.71
436.53	5978.84
436.75	6006.36
436.96	6017.67
437.17	6022.67
437.39	6031.60
437.60	6112.04
437.81	6142.60
438.03	6150.05
438.24	6154.64
438.45	6274.81
438.67	6220.66
438.88	6261.95
439.09	6355.50
439.31	6309.38
439.52	6381.06
439.73	6356.40
439.94	6302.83
440.16	6395.07
440.37	6387.37
440.58	6460.85
440.80	6486.65
441.01	6436.93
441.22	6621.66
441.44	6597.33
441.65	6564.56
441.86	6569.15
442.08	6664.25
442.29	6636.57
442.50	6708.00
442.71	6669.17
442.93	6764.03
443.14	6717.34
443.35	6829.07
443.57	6748.30
443.78	6836.04
443.99	6878.14
444.20	6839.40
444.42	6938.11
444.63	6921.15
444.84	7002.82
445.06	7068.44
445.27	6983.33
445.48	7021.26
445.69	7055.25
445.91	7081.63
446.12	7071.14
446.33	7152.49
446.54	7248.74
446.76	7202.21
446.97	7243.67
447.18	7222.53
447.39	7266.52
447.61	7335.17
447.82	7372.03
448.03	7323.21
448.25	7394.97
448.46	7475.50
448.67	7499.42
448.88	7457.06
449.10	7603.37
449.31	7581.01
449.52	7563.15
449.73	7643.27
449.95	7734.03
450.16	7689.14
450.37	7775.65
450.58	7956.28
450.79	7769.42
451.01	7911.30
451.22	7788.83
451.43	7875.83
451.64	7959.47
451.86	7992.32
452.07	8027.30
452.28	8084.48
452.49	8188.52
452.71	8079.32
452.92	8141.90
453.13	8201.46
453.34	8202.11
453.55	8341.46
453.77	8418.05
453.98	8386.35
454.19	8316.96
454.40	8458.03
454.62	8512.67
454.83	8403.72
455.04	8615.56
455.25	8458.68
455.46	8822.65
455.68	8637.35
455.89	8641.12
456.10	8683.31
456.31	8743.35
456.52	8835.92
456.74	8829.94
456.95	9022.20
457.16	8956.42
457.37	9068.49
457.58	9048.17
457.80	9070.54
458.01	9077.66
458.22	9443.27
458.43	9254.03
458.64	9345.86
458.86	9223.31
459.07	9347.26
459.28	9349.39
459.49	9522.81
459.70	9710.40
459.91	9594.57
460.13	9597.11
460.34	9680.67
460.55	9651.75
460.76	9826.56
460.97	9842.87
461.19	9857.77
461.40	10156.94
461.61	9978.52
461.82	10064.62
462.03	10146.46
462.24	10098.53
462.46	10156.37
462.67	10208.39
462.88	10343.80
463.09	10301.12
463.30	10488.06
463.51	10402.12
463.72	10590.78
463.94	10685.40
464.15	10669.26
464.36	10558.10
464.57	10904.61
464.78	10861.69
464.99	10922.96
465.20	10891.75
465.42	11131.37
465.63	11071.81
465.84	11118.26
466.05	11268.66
466.26	11294.63
466.47	11442.17
466.68	11365.90
466.90	11567.34
467.11	11568.24
467.32	11702.91
467.53	11866.26
467.74	11627.63
467.95	11829.72
468.16	12019.77
468.37	12105.95
468.59	12160.10
468.80	12334.75
469.01	12169.11
469.22	12409.38
469.43	12678.81
469.64	12525.05
469.85	12685.86
470.06	12760.16
470.28	12920.80
470.49	12673.08
470.70	12938.41
470.91	13266.58
471.12	13064.24
471.33	13378.23
471.54	13281.24
471.75	13384.62
471.96	13747.11
472.17	13701.16
472.39	13999.01
472.60	13730.73
472.81	14111.32
473.02	13994.43
473.23	14270.66
473.44	14395.17
473.65	14347.00
473.86	14458.58
474.07	14576.79
474.28	14649.28
474.49	15050.36
474.71	14968.11
474.92	15180.12
475.13	15101.89
475.34	15204.12
475.55	15340.35
475.76	15475.03
475.97	15843.66
476.18	15773.86
476.39	16020.60
476.60	16168.71
476.81	16252.19
477.02	16438.47
477.23	16499.75
477.44	16535.22
477.65	16762.38
477.87	16992.00
478.08	17059.01
478.29	17133.96
478.50	17543.39
478.71	17426.33
478.92	17647.76
479.13	17655.95
479.34	17808.56
479.55	18000.50
479.76	17971.42
479.97	18122.31
480.18	18602.60
480.39	18305.97
480.60	18754.89
480.81	18817.56
481.02	18912.25
481.23	19054.79
481.44	19341.26
481.65	19563.75
481.86	19827.20
482.07	19464.47
482.28	20335.51
482.49	20043.96
482.71	20161.52
482.92	20442.66
483.13	20726.02
483.34	20632.55
483.55	20824.40
483.76	20860.94
483.97	21167.31
484.18	21203.85
484.39	21489.01
484.60	21360.81
484.81	21872.96
485.02	21692.90
485.23	22158.37
485.44	22258.64
485.65	22507.09
485.86	22395.85
486.07	22806.10
486.28	22746.46
486.49	23047.92
486.70	23227.73
486.91	23459.15
487.12	23355.69
487.33	23417.38
487.54	23922.90
487.75	23902.58
487.96	24082.31
488.17	24078.87
488.38	24421.04
488.59	24514.19
488.80	24721.60
489.01	24773.29
489.22	25163.64
489.43	25076.15
489.64	25022.33
489.85	25648.43
490.06	25210.66
490.26	25713.56
490.47	25609.85
490.68	26082.68
490.89	26395.37
491.10	26032.63
491.31	26461.64
491.52	26750.40
491.73	26684.30
491.94	26723.94
492.15	27040.64
492.36	27225.21
492.57	27234.46
492.78	27299.75
492.99	27511.02
493.20	27776.03
493.41	27881.21
493.62	27965.59
493.83	27993.44
494.04	28192.17
494.25	28467.26
494.46	28477.74
494.67	28396.48
494.88	28633.39
495.08	28784.86
495.29	28987.36
495.50	29269.65
495.71	29193.63
495.92	29519.42
496.13	29536.62
496.34	29528.68
496.55	29682.93
496.76	30185.99
496.97	29755.59
497.18	30224.41
497.39	30137.66
497.60	30706.51
497.81	30349.18
498.02	30651.54
498.22	30439.12
498.43	31016.40
498.64	31033.61
498.85	30996.58
499.06	31203.02
499.27	31627.68
499.48	31007.56
499.69	31464.09
499.90	31639.72
500.11	31865.16
500.32	32273.20
500.52	31916.61
500.73	32534.93
500.94	32647.08
501.15	32592.19
501.36	32549.84
501.57	32439.33
501.78	32751.77
501.99	33066.99
502.20	33057.16
502.41	33136.22
502.61	33119.67
502.82	33575.71
503.03	33284.65
503.24	33785.59
503.45	33596.93
503.66	34022.66
503.87	33974.65
504.08	34290.53
504.28	34118.42
504.49	34435.61
504.70	34525.07
504.91	34728.88
505.12	34447.49
505.33	35028.13
505.54	35027.64
505.75	35180.91
505.95	35312.39
506.16	35266.68
506.37	35093.99
506.58	35791.37
506.79	35124.30
507.00	35870.50
507.21	35629.00
507.41	35705.93
507.62	35892.54
507.83	36411.82
508.04	36072.02
508.25	36594.99
508.46	36316.71
508.67	36904.15
508.87	36569.92
509.08	37087.49
509.29	36958.71
509.50	37108.70
509.71	37280.81
509.92	37418.27
510.12	37211.84
510.33	37490.20
510.54	37416.88
510.75	37627.90
510.96	37776.09
511.17	38059.86
511.37	38086.81
511.58	38278.42
511.79	38083.70
512.00	38095.17
512.21	38692.93
512.42	38594.87
512.62	38810.56
512.83	39061.07
513.04	38902.48
513.25	39196.65
513.46	38497.55
513.66	39636.14
513.87	39285.28
514.08	39577.16
514.29	39368.51
514.50	39511.54
514.71	39960.21
514.91	39755.99
515.12	39783.76
515.33	40120.94
515.54	39981.92
515.75	40512.34
515.95	40228.17
516.16	40310.74
516.37	40794.47
516.58	40922.02
516.78	40620.40
516.99	41019.34
517.20	40994.85
517.41	41101.91
517.62	41352.01
517.82	41219.63
518.03	41890.87
518.24	42224.04
518.45	41522.16
518.66	42074.04
518.86	41710.16
519.07	42292.19
519.28	41616.53
519.49	42457.51
519.69	42481.02
519.90	42591.69
520.11	42818.28
520.32	42724.89
520.52	43246.79
520.73	42769.45
520.94	43385.48
521.15	43306.18
521.36	42846.62
521.56	43789.91
521.77	43109.17
521.98	43912.38
522.19	43249.25
522.39	43738.06
522.60	43591.51
522.81	43820.55
523.02	43644.75
523.22	44079.66
523.43	44391.20
523.64	44256.77
523.84	44377.43
524.05	44912.04
524.26	44744.76
524.47	44465.50
524.67	44707.32
524.88	44963.15
525.09	45352.60
525.30	45076.78
525.50	45104.79
525.71	45285.42
525.92	45367.42
526.13	45715.50
526.33	45532.00
526.54	45382.17
526.75	45746.54
526.95	46162.94
527.16	45355.71
527.37	46064.55
527.58	46272.54
527.78	46242.07
527.99	46615.37
528.20	46823.36
528.40	46405.91
528.61	46329.97
528.82	46848.27
529.03	46636.75
529.23	46657.07
529.44	47177.17
529.65	47210.19
529.85	47167.67
530.06	47054.05
530.27	47402.78
530.47	46829.51
530.68	47955.15
530.89	47024.31
531.09	47848.74
531.30	47700.88
531.51	47368.04
531.72	47988.09
531.92	48003.40
532.13	48314.37
532.34	48110.39
532.54	48124.15
532.75	48339.93
532.96	48200.01
533.16	48478.70
533.37	48721.01
533.58	48374.50
533.78	48947.19
533.99	49087.76
534.20	48603.05
534.40	48932.45
534.61	49188.52
534.82	49182.13
535.02	49368.83
535.23	49305.75
535.44	49543.64
535.64	49413.55
535.85	49647.68
536.06	49631.79
536.26	49657.59
536.47	49696.91
536.68	50376.75
536.88	49603.69
537.09	50380.85
537.29	49736.31
537.50	50700.83
537.71	50192.60
537.91	50424.92
538.12	50580.73
538.33	50398.95
538.53	50674.69
538.74	50905.62
538.95	50827.64
539.15	50627.43
539.36	50962.56
539.56	51330.21
539.77	50892.43
539.98	51076.59
540.18	51364.69
540.39	51111.57
540.60	51423.18
540.80	51656.57
541.01	51445.06
541.21	51509.53
541.42	51843.43
541.63	51581.86
541.83	51938.78
542.04	51962.62
542.25	51880.95
542.45	52219.43
542.66	52169.79
542.86	52529.01
543.07	51292.03
543.28	52499.27
543.48	52207.07
543.69	52593.56
543.89	52334.69
544.10	53046.73
544.31	52755.27
544.51	52670.32
544.72	52985.95
544.92	52798.19
545.13	53242.35
545.33	53146.67
545.54	52941.06
545.75	53180.18
545.95	52947.61
546.16	53039.28
546.36	53659.57
546.57	52767.23
546.78	52014.56
546.98	52726.02
547.19	52004.07
547.39	53053.94
547.60	53387.19
547.80	54018.21
548.01	54170.74
548.22	53742.30
548.42	53895.08
548.63	54209.08
548.83	53979.38
549.04	54271.58
549.24	53794.08
549.45	54060.97
549.65	54446.40
549.86	53731.65
550.07	54044.26
550.27	54427.23
550.48	54585.90
550.68	54459.83
550.89	54442.87
551.09	54681.26
551.30	54512.75
551.50	54894.57
551.71	54616.38
551.91	54564.60
552.12	54680.68
552.33	55160.24
552.53	54537.00
552.74	55276.23
552.94	55326.53
553.15	55108.55
553.35	55506.02
553.56	54926.19
553.76	55503.89
553.97	55015.32
554.17	55266.48
554.38	56057.98
554.58	55338.08
554.79	55921.67
554.99	55315.64
555.20	55553.12
555.40	56035.46
555.61	55738.99
555.81	55448.02
556.02	56428.42
556.22	56109.43
556.43	55903.08
556.63	55992.20
556.84	55995.15
557.04	56684.42
557.25	55920.20
557.45	56522.30
557.66	56406.38
557.86	56230.26
558.07	56818.93
558.27	56341.59
558.48	56300.46
558.68	56333.72
558.89	56549.17
559.09	56616.83
559.30	56307.02
559.50	56550.64
559.71	56139.33
559.91	56946.06
560.12	56663.36
560.32	56787.31
560.53	57009.31
560.73	56777.39
560.94	57264.07
561.14	56658.53
561.35	57319.45
561.55	57167.33
561.76	57309.46
561.96	56601.68
562.17	57196.98
562.37	57483.29
562.57	57226.06
562.78	57223.28
562.98	57484.43
563.19	57420.05
563.39	57592.98
563.60	57562.18
563.80	56975.80
564.01	57651.47
564.21	57390.06
564.42	57227.05
564.62	57524.00
564.82	57842.34
565.03	57419.47
565.23	57546.45
565.44	57790.24
565.64	57620.99
565.85	57940.72
566.05	57718.07
566.25	58164.93
566.46	57687.02
566.66	57983.73
566.87	58035.67
567.07	57952.93
567.28	58164.85
567.48	58517.02
567.68	57736.33
567.89	58763.84
568.09	58207.94
568.30	58200.08
568.50	58605.00
568.71	58448.95
568.91	58655.38
569.11	58235.71
569.32	58128.32
569.52	58328.85
569.73	57758.13
569.93	58456.89
570.13	58236.69
570.34	58148.96
570.54	58708.96
570.75	58469.34
570.95	58398.98
571.15	58268.23
571.36	58860.10
571.56	58241.61
571.77	58244.15
571.97	57907.87
572.17	58786.86
572.38	58606.80
572.58	58919.32
572.79	58576.25
572.99	58656.86
573.19	58698.55
573.40	58523.74
573.60	58715.43
573.81	58622.53
574.01	58926.61
574.21	58837.65
574.42	58913.75
574.62	58714.53
574.82	59226.36
575.03	58940.95
575.23	59400.43
575.43	58951.52
575.64	58962.66
575.84	59474.65
576.05	58850.18
576.25	59031.96
576.45	58818.32
576.66	59464.17
576.86	58902.12
577.06	59284.68
577.27	59159.84
577.47	59300.41
577.67	59100.36
577.88	58658.66
578.08	59360.05
578.28	59470.06
578.49	59292.63
578.69	59530.68
578.89	59227.01
579.10	59447.54
579.30	60083.88
579.50	59522.33
579.71	59168.19
579.91	59649.38
580.11	59376.43
580.32	59116.50
580.52	59158.36
580.72	59801.51
580.93	59106.34
581.13	59329.25
581.33	59814.37
581.54	59385.28
581.74	59516.51
581.94	59824.28
582.15	60172.93
582.35	59571.97
582.55	59748.10
582.76	59443.11
582.96	59924.63
583.16	59340.88
583.37	59685.10
583.57	59399.04
583.77	60072.58
583.97	58965.20
584.18	60219.78
584.38	59975.50
584.58	59678.22
584.79	60119.76
584.99	59878.51
585.19	59749.65
585.40	59692.23
585.60	60020.39
585.80	59514.55
586.00	60006.06
586.21	59962.40
586.41	60066.51
586.61	60321.94
586.82	60098.63
587.02	59890.80
587.22	60266.72
587.42	59627.92
587.63	60321.44
587.83	59556.90
588.03	60045.62
588.23	59605.39
588.44	60066.60
588.64	59613.67
588.84	60005.40
589.05	60139.01
589.25	60189.39
589.45	60108.05
589.65	60025.64
589.86	60340.29
590.06	60287.45
590.26	59970.59
590.46	60338.65
590.67	59567.22
590.87	60388.70
591.07	60523.21
591.27	59975.42
591.48	60394.84
591.68	59845.74
591.88	60861.04
592.08	60007.04
592.29	60655.18
592.49	60482.50
592.69	60700.40
592.89	60171.45
593.10	60370.43
593.30	60231.01
593.50	60963.11
593.70	59754.16
593.90	60789.36
594.11	60527.80
594.31	60553.52
594.51	60808.29
594.71	60781.42
594.92	60821.56
595.12	60601.53
595.32	60506.17
595.52	60823.44
595.72	60001.14
595.93	60862.93
596.13	60581.05
596.33	60242.48
596.53	60819.92
596.73	60766.92
596.94	60514.45
597.14	61009.81
597.34	60615.21
597.54	60971.96
597.74	60446.37
597.95	60629.21
598.15	60587.52
598.35	60674.11
598.55	60734.56
598.75	60530.42
598.96	61199.45
599.16	60866.29
599.36	61052.57
599.56	60843.84
599.76	60772.90
599.97	61312.99
600.17	60974.01
600.37	61189.46
600.57	60328.16
600.77	61330.93
600.97	60855.39
601.18	61364.43
601.38	60897.42
601.58	61165.45
601.78	61030.12
601.98	60832.29
602.18	61056.34
602.39	61589.38
602.59	61223.86
602.79	60971.14
602.99	61032.09
603.19	61055.11
603.39	60793.13
603.60	60903.31
603.80	60969.67
604.00	60916.99
604.20	61027.50
604.40	61249.26
604.60	60983.02
604.80	60988.43
605.01	61111.06
605.21	60901.59
605.41	60796.00
605.61	60492.57
605.81	60913.80
606.01	61374.10
606.21	60836.71
606.42	61246.47
606.62	60999.16
606.82	61445.04
607.02	61056.17
607.22	61162.34
607.42	61427.35
607.62	60754.71
607.82	61125.07
608.03	61178.72
608.23	60922.24
608.43	60723.91
608.63	61268.84
608.83	61190.28
609.03	61177.25
609.23	61306.11
609.43	61398.35
609.63	61290.30
609.84	60878.33
610.04	61510.82
610.24	61388.85
610.44	61372.46
610.64	60909.13
610.84	61180.94
611.04	61573.33
611.24	61155.30
611.44	60420.24
611.64	61188.88
611.85	61238.53
612.05	61107.78
612.25	61388.35
612.45	60890.29
612.65	61176.51
612.85	61186.51
613.05	60854.65
613.25	61447.75
613.45	61239.02
613.65	61180.94
613.85	60552.87
614.05	61124.49
614.25	61405.97
614.46	61144.89
614.66	60971.06
614.86	60707.04
615.06	60934.03
615.26	61221.49
615.46	60416.72
615.66	61310.70
615.86	61110.90
616.06	60555.24
616.26	60769.46
616.46	61356.90
616.66	60893.40
616.86	61417.85
617.06	60921.42
617.26	61542.28
617.46	61173.73
617.66	61001.37
617.86	60601.77
618.07	60944.36
618.27	60858.75
618.47	60790.43
618.67	60837.86
618.87	60972.70
619.07	60801.98
619.27	60675.25
619.47	60587.76
619.67	61110.49
619.87	60594.15
620.07	61006.37
620.27	60987.53
620.47	60574.25
620.67	60988.26
620.87	60984.66
621.07	61090.25
621.27	60871.94
621.47	60491.59
621.67	60944.85
621.87	60544.35
622.07	61013.58
622.27	60964.18
622.47	60694.42
622.67	60813.94
622.87	60330.46
623.07	60902.82
623.27	61296.93
623.47	60270.33
623.67	60766.26
623.87	61051.01
624.07	60813.04
624.27	60351.02
624.47	60557.94
624.67	60342.91
624.87	60567.53
625.07	60092.89
625.27	60686.15
625.47	60177.10
625.67	60062.83
625.87	60477.58
626.07	60351.10
626.27	60523.29
626.47	60415.90
626.67	60185.21
626.87	59841.48
627.07	60276.72
627.27	60176.37
627.47	60430.32
627.67	60273.03
627.87	60182.10
628.07	60560.65
628.27	60307.93
628.47	60039.81
628.67	60631.10
628.86	60621.43
629.06	60369.29
629.26	60100.43
629.46	60583.91
629.66	60314.65
629.86	59844.27
630.06	60451.70
630.26	60307.76
630.46	60563.02
630.66	59934.79
630.86	60017.36
631.06	59913.33
631.26	59573.20
631.46	60155.48
631.66	60168.83
631.86	59656.18
632.06	60075.69
632.26	59753.50
632.45	59802.74
632.65	59937.66
632.85	60100.43
633.05	59860.82
633.25	59960.02
633.45	59481.70
633.65	59535.11
633.85	60074.13
634.05	59044.33
634.25	59337.93
634.45	59399.45
634.65	59855.57
634.84	59444.50
635.04	59742.36
635.24	59326.79
635.44	59751.13
635.64	59366.03
635.84	59694.03
636.04	59541.58
636.24	59379.05
636.44	59450.89
636.64	58786.37
636.84	59788.81
637.03	59107.57
637.23	59429.68
637.43	59562.88
637.63	59388.55
637.83	59567.30
638.03	59494.48
638.23	58986.82
638.43	59603.02
638.62	59725.90
638.82	58627.94
639.02	59420.83
639.22	58921.62
639.42	59109.62
639.62	58665.87
639.82	58811.52
640.02	59093.07
640.21	59103.15
640.41	58464.92
640.61	58981.58
640.81	58858.79
641.01	58784.16
641.21	58711.17
641.41	59440.82
641.61	58739.27
641.80	58751.64
642.00	59177.29
642.20	59253.63
642.40	58336.72
642.60	58815.53
642.80	59007.55
642.99	58614.26
643.19	59241.10
643.39	58615.16
643.59	58910.72
643.79	58705.43
643.99	58985.92
644.19	58619.26
644.38	58171.82
644.58	58445.75
644.78	58303.46
644.98	58196.47
645.18	58411.59
645.38	58547.08
645.57	58147.49
645.77	58222.69
645.97	58141.67
646.17	58494.41
646.37	58399.63
646.56	58231.21
646.76	58293.30
646.96	58475.08
647.16	58213.76
647.36	58498.51
647.55	58286.75
647.75	58321.07
647.95	57904.68
648.15	58226.45
648.35	58057.29
648.55	58048.61
648.74	57827.76
648.94	57837.75
649.14	58267.58
649.34	57619.44
649.54	57642.21
649.73	57753.70
649.93	57501.72
650.13	57703.57
650.33	57415.62
650.52	57781.47
650.72	58148.06
650.92	57772.79
651.12	57569.63
651.32	57828.49
651.51	57976.11
651.71	57922.37
651.91	57624.19
652.11	57359.51
652.30	57262.11
652.50	57854.95
652.70	57778.93
652.90	57294.55
653.10	57632.05
653.29	57257.77
653.49	57636.15
653.69	57057.97
653.89	57150.04
654.08	56991.61
654.28	57563.24
654.48	57224.92
654.68	57453.31
654.87	57048.95
655.07	56850.63
655.27	57399.81
655.47	57014.47
655.66	57142.34
655.86	56775.59
656.06	57470.26
656.26	56441.53
656.45	56817.12
656.65	56960.07
656.85	56708.17
657.04	56365.67
657.24	56347.32
657.44	56243.53
657.64	56714.32
657.83	55677.39
658.03	56398.93
658.23	56281.21
658.43	56086.00
658.62	56280.97
658.82	56056.35
659.02	56008.01
659.21	56135.97
659.41	55973.53
659.61	56431.94
659.81	56053.31
660.00	55948.13
660.20	56020.96
660.40	55696.89
660.59	55804.12
660.79	55248.05
660.99	55664.28
661.19	55492.01
661.38	55492.17
661.58	54739.58
661.78	55239.29
661.97	55018.27
662.17	55882.84
662.37	55184.32
662.56	55384.20
662.76	55458.99
662.96	55618.74
663.15	55613.90
663.35	55487.50
663.55	55333.82
663.74	55009.34
663.94	55480.21
664.14	54950.85
664.33	55311.70
664.53	54964.94
664.73	55364.05
664.93	54531.18
665.12	55039.00
665.32	54654.72
665.52	54703.70
665.71	54502.67
665.91	54713.70
666.10	54392.00
666.30	54688.38
666.50	54150.75
666.69	54140.02
666.89	54609.74
667.09	54925.70
667.28	54339.41
667.48	54071.62
667.68	54334.74
667.87	54371.11
668.07	54076.70
668.27	54621.21
668.46	54580.74
668.66	54266.01
668.86	54804.46
669.05	54172.71
669.25	54421.90
669.44	54029.84
669.64	53828.89
669.84	53821.27
670.03	54339.25
670.23	53988.72
670.43	53990.60
670.62	54129.70
670.82	53963.65
671.01	54017.06
671.21	53555.86
671.41	53561.76
671.60	53726.58
671.80	53854.94
672.00	53476.40
672.19	53913.11
672.39	53881.40
672.58	53670.95
672.78	53455.51
672.98	53864.28
673.17	53545.45
673.37	52771.81
673.56	53104.89
673.76	53327.30
673.96	53652.44
674.15	53241.62
674.35	53387.02
674.54	53168.14
674.74	53064.59
674.94	52976.53
675.13	53309.45
675.33	52786.23
675.52	53385.71
675.72	53129.39
675.91	52934.75
676.11	53155.19
676.31	52584.96
676.50	52710.87
676.70	52613.38
676.89	52653.52
677.09	52743.39
677.28	52651.56
677.48	52126.05
677.68	52431.60
677.87	52234.34
678.07	52112.04
678.26	52169.30
678.46	52213.13
678.65	52007.84
678.85	52394.09
679.04	51841.22
679.24	52173.31
679.44	51998.99
679.63	52276.61
679.83	51910.68
680.02	52048.88
680.22	51668.70
680.41	51808.69
680.61	51493.47
680.80	51408.03
681.00	51428.92
681.19	51475.86
681.39	51364.12
681.59	51313.25
681.78	51182.43
681.98	51679.59
682.17	51083.80
682.37	51446.20
682.56	51165.80
682.76	51546.64
682.95	51122.05
683.15	51261.48
683.34	51086.01
683.54	51222.98
683.73	51361.99
683.93	50708.12
684.12	51143.51
684.32	51251.73
684.51	50627.18
684.71	50929.95
684.90	50808.47
685.10	50749.48
685.29	50580.73
685.49	50883.75
685.68	50900.87
685.88	50733.43
686.07	50421.81
686.27	50770.70
686.46	50650.12
686.66	50388.22
686.85	50544.52
687.05	50145.58
687.24	50094.22
687.44	50288.94
687.63	50379.13
687.83	49794.80
688.02	50164.34
688.22	50408.46
688.41	49991.90
688.61	49977.97
688.80	50145.25
689.00	49877.13
689.19	49666.44
689.39	50061.78
689.58	50000.83
689.77	49753.93
689.97	49814.96
690.16	49580.83
690.36	49111.85
690.55	49082.19
690.75	49695.76
690.94	49214.33
691.14	49279.29
691.33	48831.19
691.53	49346.63
691.72	49087.52
691.91	49117.09
692.11	49069.90
692.30	49228.34
692.50	49301.49
692.69	48723.63
692.89	48876.74
693.08	48715.85
693.28	48670.14
693.47	48697.17
693.66	48670.31
693.86	48442.65
694.05	48442.82
694.25	48459.77
694.44	48708.97
694.64	48463.46
694.83	48368.52
695.02	48439.95
695.22	48611.82
695.41	48200.34
695.61	48042.07
695.80	48109.49
695.99	48182.07
696.19	48079.92
696.38	48069.76
696.58	47646.32
696.77	48430.61
696.96	48174.70
697.16	47906.41
697.35	47716.12
697.55	47711.53
697.74	47404.41
697.93	47873.32
698.13	47383.20
698.32	47633.71
698.52	47345.60
698.71	46975.24
698.90	47650.01
699.10	47233.86
699.29	47352.64
699.49	47683.84
699.68	47257.53
699.87	47117.78
700.07	47486.17
700.26	47186.59
700.45	47046.10
700.65	46757.99
700.84	47173.24
701.04	46893.49
701.23	47191.51
701.42	47085.18
701.62	46863.26
701.81	47151.45
702.00	46935.35
702.20	46451.13
702.39	46621.93
702.58	46620.86
702.78	46248.87
702.97	46051.12
703.17	46084.62
703.36	46278.20
703.55	46026.62
703.75	46021.05
703.94	46269.43
704.13	46027.61
704.33	46008.93
704.52	46267.87
704.71	45937.17
704.91	45823.14
705.10	45517.09
705.29	45683.22
705.49	45780.46
705.68	45855.41
705.87	45870.32
706.07	45406.99
706.26	45831.82
706.45	45173.19
706.65	45098.40
706.84	45511.85
707.03	45742.20
707.23	44986.17
707.42	44901.96
707.61	45438.36
707.80	44910.73
708.00	45135.27
708.19	44954.63
708.38	45337.11
708.58	44398.65
708.77	45004.77
708.96	44278.89
709.16	44194.51
709.35	44977.90
709.54	44431.42
709.74	44299.78
709.93	44050.66
710.12	44688.32
710.31	44793.25
710.51	44424.05
710.70	44407.99
710.89	44510.63
711.09	43847.99
711.28	43770.99
711.47	44028.71
711.66	43901.81
711.86	43757.64
712.05	43745.68
712.24	43973.82
712.43	43606.74
712.63	43173.72
712.82	43807.36
713.01	43479.03
713.21	43163.15
713.40	43233.60
713.59	43615.51
713.78	42966.06
713.98	43356.24
714.17	43180.44
714.36	43130.39
714.55	42664.92
714.75	43015.37
714.94	43017.01
715.13	43257.69
715.32	42763.23
715.52	42984.73
715.71	42712.85
715.90	42732.51
716.09	42522.47
716.29	42870.95
716.48	42603.24
716.67	42148.84
716.86	42424.90
717.06	42338.56
717.25	42469.87
717.44	42640.10
717.63	42634.78
717.82	42028.91
718.02	42197.82
718.21	42347.49
718.40	42232.97
718.59	41989.42
718.79	41842.87
718.98	41880.72
719.17	42150.97
719.36	42262.05
719.55	41892.43
719.75	41717.29
719.94	41627.91
720.13	41869.08
720.32	41564.67
720.51	41283.28
720.71	41210.05
720.90	40820.69
721.09	41252.23
721.28	40898.18
721.47	41416.24
721.67	41121.82
721.86	41136.48
722.05	40930.29
722.24	40487.44
722.43	40863.61
722.63	40523.49
722.82	40667.09
723.01	40682.49
723.20	40306.15
723.39	40289.61
723.58	40422.89
723.78	39850.11
723.97	40341.87
724.16	39965.78
724.35	40089.81
724.54	39903.52
724.73	40259.54
724.93	39976.27
725.12	40392.50
725.31	39668.42
725.50	39979.38
725.69	40182.79
725.88	39791.71
726.08	39379.90
726.27	39852.49
726.46	39276.44
726.65	40065.07
726.84	39282.83
727.03	39377.77
727.23	39596.00
727.42	39205.41
727.61	39126.52
727.80	38926.23
727.99	39178.71
728.18	39140.45
728.37	38933.52
728.56	38878.64
728.76	38705.38
728.95	38903.54
729.14	38814.41
729.33	38657.87
729.52	38670.57
729.71	38664.83
729.90	38698.25
730.09	38392.29
730.29	38703.66
730.48	38192.00
730.67	38639.60
730.86	38210.18
731.05	38554.08
731.24	38178.48
731.43	38232.46
731.62	37850.97
731.81	37694.67
732.01	38195.11
732.20	37679.68
732.39	37920.84
732.58	37890.29
732.77	37265.09
732.96	37711.21
733.15	37719.65
733.34	37428.68
733.53	37583.34
733.72	37654.44
733.92	37581.05
734.11	37641.75
734.30	37555.90
734.49	37767.17
734.68	37492.90
734.87	37256.24
735.06	37194.23
735.25	37275.82
735.44	37061.60
735.63	37167.68
735.82	37295.40
736.01	37032.85
736.20	36998.77
736.40	37292.94
736.59	37137.95
736.78	37261.15
736.97	36721.31
737.16	36831.24
737.35	36730.81
737.54	36721.64
737.73	36413.46
737.92	36704.68
738.11	36759.24
738.30	36542.56
738.49	36564.19
738.68	36446.31
738.87	36560.75
739.06	36290.01
739.25	36406.66
739.44	36330.80
739.63	36193.34
739.82	35843.71
740.01	36118.71
740.20	35729.60
740.39	35843.88
740.59	35754.09
740.78	35834.46
740.97	35697.49
741.16	35536.68
741.35	35734.11
741.54	35576.00
741.73	35665.62
741.92	35513.58
742.11	35545.12
742.30	35529.23
742.49	35186.89
742.68	35548.56
742.87	35349.25
743.06	34946.54
743.25	35188.94
743.44	34823.01
743.63	35128.32
743.82	34812.52
744.01	34776.15
744.20	34641.06
744.39	34921.06
744.58	34729.62
744.77	34597.97
744.96	34298.89
745.15	34602.89
745.34	34293.15
745.53	34436.76
745.72	34057.64
745.91	34094.09
746.10	33952.37
746.29	34238.35
746.48	34197.56
746.67	34131.45
746.86	34164.38
747.04	34022.41
747.23	33907.81
747.42	34138.16
747.61	33693.18
747.80	34193.13
747.99	33575.79
748.18	33937.96
748.37	33797.55
748.56	33402.78
748.75	33572.60
748.94	33455.78
749.13	33637.56
749.32	33281.70
749.51	33462.25
749.70	33419.33
749.89	33249.35
750.08	33455.29
750.27	33041.52
750.46	33229.69
750.65	33632.15
750.84	33162.68
751.02	33234.68
751.21	33044.39
751.40	33098.94
751.59	33151.54
751.78	32942.40
751.97	32971.07
752.16	32651.26
752.35	32907.25
752.54	32537.72
752.73	32857.28
752.92	32605.96
753.11	32543.86
753.30	32705.08
753.49	32700.74
753.67	32444.99
753.86	32330.05
754.05	32449.57
754.24	32169.08
754.43	32214.06
754.62	32242.07
754.81	31937.42
755.00	31985.91
755.19	32007.21
755.38	31615.15
755.56	31932.42
755.75	32125.34
755.94	31783.74
756.13	31856.97
756.32	31862.22
756.51	31766.21
756.70	31965.68
756.89	31755.39
757.08	31762.52
757.26	31764.08
757.45	31685.52
757.64	31430.67
757.83	31744.09
758.02	31518.73
758.21	31527.58
758.40	31661.60
758.59	31563.46
758.77	31361.04
758.96	31296.24
759.15	31317.62
759.34	31040.90
759.53	31133.38
759.72	31057.28
759.91	30801.78
760.09	31039.01
760.28	31068.10
760.47	30669.40
760.66	31061.79
760.85	30657.68
761.04	30952.18
761.23	30751.07
761.41	30687.17
761.60	30756.48
761.79	30637.37
761.98	30436.75
762.17	30841.59
762.36	30550.04
762.54	30892.13
762.73	30729.53
762.92	30547.42
763.11	30729.20
763.30	30700.44
763.49	30509.00
763.67	30405.95
763.86	30318.62
764.05	30473.69
764.24	30293.39
764.43	30588.79
764.61	30103.50
764.80	30180.83
764.99	30501.30
765.18	30024.86
765.37	30206.15
765.55	30226.38
765.74	29949.90
765.93	29752.89
766.12	30079.34
766.31	29994.47
766.49	30103.50
766.68	30213.52
766.87	30102.85
767.06	30056.64
767.25	30057.22
767.43	29920.09
767.62	29805.56
767.81	29854.63
768.00	29583.56
768.19	29500.33
768.37	29640.01
768.56	29522.04
768.75	29703.49
768.94	29687.03
769.12	29358.86
769.31	29306.27
769.50	29276.04
769.69	29400.97
769.88	28962.29
770.06	29555.55
770.25	29179.38
770.44	29127.03
770.63	29397.85
770.81	29206.33
771.00	28999.97
771.19	28976.14
771.38	28904.70
771.56	29144.81
771.75	28593.66
771.94	28990.31
772.13	28945.50
772.31	28846.70
772.50	29069.36
772.69	28851.37
772.88	29073.95
773.06	28684.34
773.25	28883.40
773.44	28825.16
773.62	28791.90
773.81	28767.74
774.00	28534.51
774.19	28543.61
774.37	28478.32
774.56	28680.33
774.75	28243.86
774.94	28578.42
775.12	28303.01
775.31	28455.30
775.50	28409.75
775.68	28310.14
775.87	28296.95
776.06	28236.49
776.25	28430.97
776.43	28138.19
776.62	28349.38
776.81	27987.95
776.99	28189.55
777.18	28186.11
777.37	27933.88
777.55	28003.52
777.74	27941.58
777.93	27816.17
778.12	27775.86
778.30	27711.72
778.49	27668.47
778.68	27854.67
778.86	27721.88
779.05	27922.33
779.24	27830.91
779.42	27654.87
779.61	27660.77
779.80	27718.27
779.98	27938.14
780.17	27986.64
780.36	27642.58
780.54	27901.20
780.73	27286.64
780.92	27599.74
781.10	27462.20
781.29	27328.01
781.48	27244.21
781.66	27354.39
781.85	27373.72
782.04	27170.07
782.22	27298.69
782.41	27095.45
782.60	27262.81
782.78	27223.24
782.97	27290.08
783.16	26936.11
783.34	26958.48
783.53	27076.28
783.71	26893.68
783.90	26900.72
784.09	26914.73
784.27	26943.90
784.46	26854.77
784.65	26989.03
784.83	26732.63
785.02	26789.15
785.20	27096.67
785.39	26613.19
785.58	27021.39
785.76	26987.48
785.95	26900.15
786.14	26904.17
786.32	26899.66
786.51	26832.08
786.69	26980.60
786.88	26815.69
787.07	26775.96
787.25	26812.99
787.44	26818.07
787.62	26726.81
787.81	26876.89
788.00	26741.47
788.18	26590.17
788.37	26600.08
788.55	27120.59
788.74	26879.92
788.93	27038.51
789.11	27299.34
789.30	27160.33
789.48	27014.67
789.67	27149.59
789.86	27114.70
790.04	27272.14
790.23	27114.21
790.41	27115.11
790.60	27249.53
790.78	27159.92
790.97	26839.29
791.16	26981.01
791.34	27256.66
791.53	26826.18
791.71	27188.51
791.90	26906.05
792.08	26945.45
792.27	26882.46
792.46	26744.59
792.64	26877.05
792.83	26667.91
793.01	26758.27
793.20	26705.02
793.38	26623.35
793.57	26729.68
793.75	26696.83
793.94	26832.90
794.12	27041.13
794.31	26730.42
794.50	26913.50
794.68	26917.19
794.87	26867.38
795.05	27046.54
795.24	26822.00
795.42	26838.63
795.61	27170.16
795.79	27204.81
795.98	26841.99
796.16	27123.46
796.35	27135.42
796.53	26932.35
796.72	27184.98
796.90	27165.81
797.09	27192.52
797.27	27227.99
797.46	27095.61
797.64	27173.35
797.83	27041.22
798.01	27105.28
798.20	27263.71
798.38	27000.58
798.57	27280.91
798.75	27127.64
798.94	26855.26
799.12	27547.80
799.31	27130.83
799.49	27095.04
799.68	26924.97
799.86	26956.27
800.05	26965.44
800.23	27003.21
800.42	26888.60
800.60	27199.73
800.79	26814.87
800.97	27004.76
801.16	27143.45
801.34	26887.62
801.53	26876.80
801.71	27010.25
801.90	26819.22
802.08	27126.57
802.27	26869.27
802.45	26701.91
802.64	26764.00
802.82	26761.63
803.00	26497.11
803.19	26648.17
803.37	26822.08
803.56	26591.73
803.74	26630.23
803.93	26663.65
804.11	26639.49
804.30	26585.01
804.48	26819.71
804.67	26813.97
804.85	26744.10
805.03	26891.80
805.22	26601.72
805.40	26535.29
805.59	26738.28
805.77	26744.34
805.96	26612.86
806.14	26606.80
806.32	26803.24
806.51	26887.04
806.69	26504.65
806.88	26316.23
807.06	26244.64
807.25	26254.80
807.43	26279.37
807.61	26363.50
807.80	26316.48
807.98	26518.57
808.17	26365.80
808.35	26274.13
808.53	26511.12
808.72	26317.87
808.90	26247.91
809.09	26366.37
809.27	26356.29
809.45	26181.97
809.64	26449.27
809.82	26134.29
810.01	26188.85
810.19	26216.87
810.37	26011.91
810.56	25895.75
810.74	26043.53
810.93	25813.50
811.11	25834.39
811.29	25643.03
811.48	25828.33
811.66	25789.74
811.84	25783.03
812.03	25776.88
812.21	25824.07
812.40	25986.68
812.58	25989.95
812.76	25726.17
812.95	25876.66
813.13	25535.47
813.31	25706.51
813.50	25748.62
813.68	25594.04
813.86	25728.55
814.05	25772.13
814.23	25383.59
814.42	25623.20
814.60	25451.99
814.78	25531.45
814.97	25557.34
815.15	25533.66
815.33	25710.61
815.52	25442.73
815.70	25494.51
815.88	25454.04
816.07	25139.39
816.25	25181.41
816.43	25173.47
816.62	24919.44
816.80	24982.68
816.98	24980.55
817.17	24920.34
817.35	24887.74
817.53	24939.26
817.72	24948.93
817.90	24730.04
818.08	24780.34
818.26	24939.59
818.45	24657.54
818.63	24934.10
818.81	24964.98
819.00	24628.22
819.18	24894.86
819.36	24818.68
819.55	24826.71
819.73	24573.00
819.91	24801.72
820.09	24695.14
820.28	24788.29
820.46	24519.35
820.64	24938.12
820.83	24548.10
821.01	24533.44
821.19	24529.01
821.38	24483.47
821.56	24358.87
821.74	24432.02
821.92	24348.96
822.11	24538.27
822.29	24176.52
822.47	24253.77
822.65	24279.00
822.84	24343.14
823.02	24043.32
823.20	24447.91
823.39	24122.12
823.57	24199.04
823.75	24240.99
823.93	24128.76
824.12	24178.65
824.30	24014.81
824.48	24048.48
824.66	24252.05
824.85	23743.99
825.03	24109.67
825.21	24105.74
825.39	23962.14
825.58	24049.13
825.76	23862.28
825.94	23967.62
826.12	23907.66
826.31	23807.15
826.49	23857.85
826.67	23845.65
826.85	23680.42
827.03	23732.60
827.22	23813.29
827.40	23687.46
827.58	23607.43
827.76	23756.44
827.95	23622.99
828.13	23665.75
828.31	23675.75
828.49	23781.01
828.67	23679.60
828.86	23612.10
829.04	23696.72
829.22	23610.13
829.40	23592.35
829.58	23508.96
829.77	23473.33
829.95	23422.62
830.13	23376.74
830.31	23222.41
830.49	23370.93
830.68	23259.44
830.86	23114.44
831.04	23043.66
831.22	23019.25
831.40	23010.49
831.59	23192.84
831.77	23065.53
831.95	23264.19
832.13	22884.82
832.31	23053.66
832.50	22984.03
832.68	22804.46
832.86	22829.04
833.04	23001.23
833.22	22750.97
833.40	23064.63
833.59	22776.53
833.77	23037.19
833.95	22520.78
834.13	23195.29
834.31	22850.66
834.49	22837.88
834.67	22811.10
834.86	22815.52
835.04	22661.76
835.22	22618.75
835.40	22593.76
835.58	22516.92
835.76	22630.96
835.95	22703.86
836.13	22561.73
836.31	22480.72
836.49	22677.08
836.67	22625.88
836.85	22521.43
837.03	22417.07
837.21	22410.76
837.40	22277.64
837.58	22085.70
837.76	22339.41
837.94	22257.90
838.12	22422.64
838.30	22179.58
838.48	22203.01
838.66	22167.05
838.85	22054.90
839.03	21993.55
839.21	22053.51
839.39	21960.04
839.57	22052.86
839.75	21941.86
839.93	21965.86
840.11	21966.43
840.29	21879.19
840.47	21909.58
840.66	21921.54
840.84	21817.01
841.02	21728.29
841.20	21820.37
841.38	21707.16
841.56	21599.93
841.74	21835.85
841.92	21561.59
842.10	21609.59
842.28	21659.24
842.46	21487.12
842.65	21465.83
842.83	21645.72
843.01	21703.14
843.19	21398.49
843.37	21552.66
843.55	21424.54
843.73	21578.79
843.91	21542.42
844.09	21441.66
844.27	21693.31
844.45	21451.82
844.63	21440.43
844.81	21417.90
844.99	21489.99
845.17	21345.98
845.35	21490.81
845.54	21277.49
845.72	21266.84
845.90	21234.57
846.08	21248.74
846.26	20988.40
846.44	21192.95
846.62	20863.64
846.80	20850.04
846.98	20896.41
847.16	20792.62
847.34	20903.70
847.52	20915.74
847.70	20844.80
847.88	20980.62
848.06	20866.59
848.24	20947.61
848.42	20950.56
848.60	20857.74
848.78	20891.74
848.96	20939.25
849.14	20852.34
849.32	21051.64
849.50	20797.53
849.68	20873.72
849.86	20838.98
850.04	20669.17
850.22	20683.58
850.40	20543.75
850.58	20657.37
850.76	20996.51
850.94	20299.47
851.12	20637.05
851.30	20471.25
851.48	20603.38
851.66	20389.82
851.84	20413.09
852.02	20383.51
852.20	20553.17
852.38	20319.04
852.56	20395.15
852.74	20417.76
852.92	20378.44
853.10	20232.62
853.28	20370.41
853.46	20021.60
853.64	20299.06
853.82	20030.28
854.00	20112.45
854.18	19966.79
854.36	19912.32
854.54	20067.14
854.72	19853.01
854.90	19803.69
855.07	19903.63
855.25	19845.14
855.43	19854.65
855.61	19839.25
855.79	19719.97
855.97	19835.15
856.15	19807.46
856.33	19693.60
856.51	19892.00
856.69	19589.31
856.87	19812.46
857.05	19648.70
857.23	19686.39
857.41	19400.82
857.59	19492.48
857.77	19408.19
857.94	19377.96
858.12	19464.55
858.30	19348.23
858.48	19278.51
858.66	19190.53
858.84	19402.62
859.02	19186.35
859.20	19150.47
859.38	19410.16
859.56	19307.76
859.74	19282.20
859.92	19296.13
860.09	19267.29
860.27	19370.84
860.45	19175.87
860.63	19188.24
860.81	19313.41
860.99	19147.85
861.17	18932.65
861.35	18691.16
861.53	18569.10
861.70	18464.81
861.88	18867.28
862.06	18861.38
862.24	18632.75
862.42	18590.97
862.60	18847.78
862.78	18802.32
862.96	18936.26
863.14	18696.40
863.31	18737.93
863.49	18613.25
863.67	18552.30
863.85	18513.97
864.03	18622.59
864.21	18602.77
864.39	18539.85
864.56	18386.25
864.74	18481.77
864.92	18345.21
865.10	18266.90
865.28	18320.31
865.46	18469.32
865.64	18085.61
865.81	18335.55
865.99	18062.59
866.17	18320.31
866.35	18246.17
866.53	18262.64
866.71	18259.36
866.88	18363.48
867.06	18102.41
867.24	18255.10
867.42	18082.17
867.60	18188.50
867.78	18061.61
867.95	18296.72
868.13	18068.00
868.31	18252.48
868.49	18206.85
868.67	18065.95
868.84	17969.04
869.02	18054.32
869.20	17719.44
869.38	17887.70
869.56	17743.68
869.73	17699.20
869.91	17826.42
870.09	17776.12
870.27	17653.24
870.45	17706.57
870.62	17566.17
870.80	17682.82
870.98	17537.33
871.16	17569.61
871.34	17549.29
871.51	17548.72
871.69	17421.01
871.87	17466.80
872.05	17446.32
872.23	17426.41
872.40	17290.67
872.58	17461.39
872.76	17277.32
872.94	17287.64
873.11	17303.37
873.29	17275.44
873.47	17277.48
873.65	17198.92
873.83	17220.96
874.00	17214.57
874.18	17218.09
874.36	17165.66
874.54	17149.94
874.71	17043.28
874.89	16886.73
875.07	16986.02
875.25	16870.18
875.42	16939.57
875.60	16876.25
875.78	16992.65
875.96	16785.64
876.13	16879.19
876.31	16642.12
876.49	16567.90
876.66	16410.95
876.84	16668.91
877.02	16525.06
877.20	16541.61
877.37	16585.27
877.55	16561.92
877.73	16534.89
877.91	16456.82
878.08	16645.40
878.26	16586.34
878.44	16567.82
878.61	16646.22
878.79	16552.58
878.97	16567.82
879.15	16728.22
879.32	16667.93
879.50	16598.05
879.68	16704.30
879.85	16490.33
880.03	16665.39
880.21	16442.49
880.38	16657.85
880.56	16471.08
880.74	16635.81
880.92	16379.74
881.09	16481.15
881.27	16393.83
881.45	16450.60
881.62	16330.34
881.80	16349.34
881.98	16289.30
882.15	16442.73
882.33	16267.34
882.51	16280.70
882.68	16177.81
882.86	16403.57
883.04	16203.45
883.21	16291.35
883.39	16366.14
883.57	16205.99
883.74	16204.51
883.92	16258.74
884.10	16224.83
884.27	16267.18
884.45	16116.37
884.63	16286.59
884.80	16208.20
884.98	16282.58
885.16	16249.08
885.33	16228.02
885.51	16259.48
885.69	16225.07
885.86	16115.96
886.04	16194.19
886.21	15986.36
886.39	16159.87
886.57	15902.89
886.74	16146.43
886.92	16149.38
887.10	16181.57
887.27	16171.66
887.45	16155.11
887.62	16146.35
887.80	16167.40
887.98	16325.92
888.15	16218.03
888.33	16129.47
888.51	16330.01
888.68	16159.62
888.86	16205.41
889.03	16129.31
889.21	16154.87
889.39	16218.93
889.56	16219.50
889.74	16137.01
889.91	16150.85
890.09	16159.95
890.27	16216.14
890.44	16189.27
890.62	16132.75
890.79	16159.13
890.97	16198.61
891.14	16101.29
891.32	16144.38
891.50	16041.17
891.67	16183.54
891.85	16181.98
892.02	16157.74
892.20	16256.04
892.38	16195.99
892.55	16104.98
892.73	16167.73
892.90	15997.09
893.08	16082.94
893.25	16049.44
893.43	16198.86
893.60	16024.29
893.78	16137.09
893.96	16024.37
894.13	16119.81
894.31	16213.28
894.48	16109.65
894.66	16143.56
894.83	16189.27
895.01	16217.95
895.18	16233.18
895.36	16197.63
895.53	16255.14
895.71	16162.00
895.89	16236.87
896.06	16140.86
896.24	16212.79
896.41	16179.44
896.59	16273.49
896.76	15984.64
896.94	16220.32
897.11	16159.95
897.29	16124.31
897.46	15968.42
897.64	16047.23
897.81	15945.81
897.99	15837.35
898.16	16046.24
898.34	15938.69
898.51	15896.17
898.69	15793.85
898.86	15849.97
899.04	15850.95
899.21	15791.81
899.39	15895.19
899.56	15795.49
899.74	16016.02
899.91	15800.08
900.09	15771.16
900.26	15889.70
900.44	15733.89
900.61	15746.83
900.79	15968.83
900.96	15791.81
901.14	15771.08
901.31	15688.18
901.49	15649.43
901.66	15736.51
901.84	15692.03
902.01	15617.65
902.19	15643.61
902.36	15549.49
902.54	15561.04
902.71	15538.10
902.88	15602.90
903.06	15391.30
903.23	15634.36
903.41	15436.85
903.58	15451.27
903.76	15377.54
903.93	15504.52
904.11	15579.96
904.28	15433.82
904.45	15403.92
904.63	15370.25
904.80	15242.87
904.98	15344.04
905.15	15157.26
905.33	15259.50
905.50	15154.80
905.68	15185.36
905.85	15128.75
906.02	15080.42
906.20	15155.62
906.37	14986.63
906.55	14901.35
906.72	15037.66
906.90	14864.81
907.07	14853.10
907.24	14959.76
907.42	14827.46
907.59	14815.09
907.77	14746.69
907.94	14697.94
908.11	14683.36
908.29	14661.00
908.46	14606.11
908.64	14527.72
908.81	14638.31
908.98	14459.48
909.16	14586.37
909.33	14482.42
909.51	14428.10
909.68	14418.36
909.85	14487.99
910.03	14423.68
910.20	14332.91
910.37	14297.44
910.55	14305.80
910.72	14267.38
910.90	14198.57
911.07	14160.07
911.24	14065.78
911.42	14183.90
911.59	14035.71
911.76	14043.09
911.94	13992.71
912.11	13946.50
912.29	13930.53
912.46	13850.99
912.63	13911.20
912.81	13676.17
912.98	13844.10
913.15	13687.23
913.33	13774.39
913.50	13715.57
913.67	13655.04
913.85	13570.17
914.02	13630.71
914.19	13585.08
914.37	13500.29
914.54	13541.50
914.71	13516.68
914.89	13452.62
915.06	13486.37
915.23	13381.67
915.41	13322.12
915.58	13276.65
915.75	13231.35
915.93	13219.31
916.10	13182.69
916.27	13162.54
916.45	13105.77
916.62	13015.33
916.79	13116.17
916.97	12977.08
917.14	12923.09
917.31	12853.95
917.49	12914.90
917.66	12877.55
917.83	12827.82
918.00	12764.58
918.18	12749.75
918.35	12673.73
918.52	12785.63
918.70	12658.90
918.87	12693.39
919.04	12724.77
919.21	12738.94
919.39	12609.10
919.56	12713.87
919.73	12568.55
919.91	12661.44
920.08	12553.56
920.25	12494.25
920.42	12589.03
920.60	12418.39
920.77	12312.31
920.94	12393.65
921.11	12216.79
921.29	12281.18
921.46	12123.98
921.63	12266.43
921.81	12126.68
921.98	12161.66
922.15	12094.07
922.32	12146.50
922.50	12021.66
922.67	12013.22
922.84	11956.45
923.01	11912.22
923.19	11887.48
923.36	11882.56
923.53	11681.29
923.70	11789.83
923.87	11759.19
924.05	11790.65
924.22	11664.74
924.39	11747.80
924.56	11566.03
924.74	11646.96
924.91	11646.47
925.08	11552.18
925.25	11528.26
925.43	11554.31
925.60	11404.56
925.77	11519.58
925.94	11384.25
926.11	11408.66
926.29	11313.72
926.46	11368.44
926.63	11292.34
926.80	11270.05
926.97	11216.89
927.15	11237.45
927.32	11129.07
927.49	11121.45
927.66	11168.97
927.83	11185.92
928.01	11048.96
928.18	11050.76
928.35	10939.10
928.52	11053.05
928.69	10913.95
928.87	10914.94
929.04	10888.39
929.21	10877.25
929.38	10819.50
929.55	10880.61
929.72	10789.19
929.90	10764.29
930.07	10733.40
930.24	10661.97
930.41	10643.21
930.58	10670.65
930.75	10659.76
930.93	10581.28
931.10	10539.42
931.27	10452.10
931.44	10417.12
931.61	10324.55
931.78	10365.26
931.95	10372.47
932.13	10292.03
932.30	10372.22
932.47	10217.40
932.64	10301.69
932.81	10255.41
932.98	10223.79
933.15	10210.27
933.33	10144.41
933.50	10218.46
933.67	10113.85
933.84	10101.48
934.01	10112.30
934.18	10092.88
934.35	10064.05
934.52	10076.09
934.70	10049.79
934.87	10015.06
935.04	9945.51
935.21	9958.21
935.38	9938.96
935.55	9848.11
935.72	9915.53
935.89	9771.51
936.06	9824.60
936.24	9767.09
936.41	9852.86
936.58	9743.74
936.75	9771.43
936.92	9703.28
937.09	9713.52
937.26	9617.83
937.43	9687.96
937.60	9685.09
937.77	9613.33
937.94	9594.65
938.12	9609.32
938.29	9526.00
938.46	9557.79
938.63	9401.65
938.80	9465.22
938.97	9404.11
939.14	9363.72
939.31	9256.41
939.48	9332.59
939.65	9246.17
939.82	9259.03
939.99	9254.20
940.16	9237.40
940.33	9193.99
940.50	9149.75
940.67	9138.86
940.85	9154.67
941.02	9089.46
941.19	9148.77
941.36	9078.15
941.53	9149.42
941.70	9142.05
941.87	9072.75
942.04	9093.64
942.21	9097.08
942.38	9057.02
942.55	8951.59
942.72	8998.61
942.89	8967.24
943.06	8932.34
943.23	8853.21
943.40	8878.11
943.57	8889.33
943.74	8865.33
943.91	8840.59
944.08	8825.60
944.25	8865.82
944.42	8746.22
944.59	8737.29
944.76	8732.87
944.93	8674.95
945.10	8630.96
945.27	8627.68
945.44	8538.72
945.61	8539.37
945.78	8499.15
945.95	8498.50
946.12	8410.11
946.29	8475.48
946.46	8435.99
946.63	8383.40
946.80	8409.21
946.97	8414.78
947.14	8337.53
947.31	8423.13
947.48	8312.95
947.65	8324.26
947.82	8278.38
947.99	8336.22
948.16	8239.39
948.33	8277.73
948.50	8150.18
948.67	8194.50
948.84	8181.88
949.01	8153.37
949.18	8167.87
949.35	8177.62
949.52	8074.81
949.68	8126.26
949.85	8125.85
950.02	8027.63
950.19	8049.42
950.36	8032.62
950.53	8001.41
950.70	7966.84
950.87	7916.96
951.04	7983.97
951.21	7881.65
951.38	7854.21
951.55	7884.76
951.72	7825.04
951.89	7831.43
952.06	7854.70
952.23	7859.86
952.39	7840.77
952.56	7776.38
952.73	7822.67
952.90	7755.17
953.07	7817.18
953.24	7713.39
953.41	7759.18
953.58	7664.15
953.75	7737.39
953.92	7669.56
954.09	7658.75
954.25	7575.68
954.42	7598.62
954.59	7554.87
954.76	7540.70
954.93	7515.88
955.10	7558.48
955.27	7472.71
955.44	7492.86
955.61	7453.95
955.77	7549.39
955.94	7445.35
956.11	7443.96
956.28	7469.19
956.45	7452.80
956.62	7426.67
956.79	7432.49
956.96	7408.40
957.12	7397.02
957.29	7374.98
957.46	7372.28
957.63	7269.63
957.80	7291.26
957.97	7276.02
958.14	7297.32
958.30	7212.95
958.47	7216.63
958.64	7169.53
958.81	7208.85
958.98	7165.60
959.15	7181.73
959.32	7187.71
959.48	7187.22
959.65	7092.36
959.82	7142.17
959.99	7102.60
960.16	7149.13
960.33	7122.59
960.49	7100.55
960.66	7025.19
960.83	7054.02
961.00	7030.76
961.17	7038.70
961.33	6980.05
961.50	6966.70
961.67	6943.02
961.84	6950.15
962.01	6907.06
962.18	6946.79
962.34	6875.11
962.51	6874.13
962.68	6795.24
962.85	6858.32
963.02	6757.97
963.18	6797.95
963.35	6750.19
963.52	6767.96
963.69	6733.48
963.86	6755.43
964.02	6722.33
964.19	6771.49
964.36	6696.28
964.53	6724.96
964.69	6651.80
964.86	6728.72
965.03	6641.23
965.20	6680.47
965.37	6595.61
965.53	6623.70
965.70	6602.32
965.87	6607.24
966.04	6576.93
966.20	6563.17
966.37	6550.39
966.54	6495.75
966.71	6533.18
966.87	6482.97
967.04	6477.48
967.21	6486.33
967.38	6415.96
967.54	6405.55
967.71	6410.06
967.88	6418.01
968.05	6363.94
968.21	6347.06
968.38	6319.79
968.55	6304.47
968.72	6297.09
968.88	6257.45
969.05	6270.31
969.22	6238.44
969.39	6249.75
969.55	6270.22
969.72	6244.75
969.89	6235.98
970.05	6262.85
970.22	6263.43
970.39	6221.07
970.56	6224.10
970.72	6223.45
970.89	6213.86
971.06	6178.97
971.22	6190.76
971.39	6179.87
971.56	6194.45
971.73	6138.01
971.89	6159.06
972.06	6144.15
972.23	6137.19
972.39	6096.23
972.56	6141.69
972.73	6059.94
972.89	6109.66
973.06	6104.42
973.23	6065.18
973.39	6049.62
973.56	6043.47
973.73	6012.02
973.89	6020.54
974.06	5961.56
974.23	5983.43
974.39	5966.96
974.56	5948.28
974.73	5924.61
974.89	5865.96
975.06	5879.55
975.23	5925.10
975.39	5847.52
975.56	5906.51
975.73	5843.43
975.89	5812.14
976.06	5828.44
976.23	5771.01
976.39	5821.56
976.56	5781.33
976.73	5793.70
976.89	5787.72
977.06	5731.94
977.23	5748.24
977.39	5746.35
977.56	5761.10
977.72	5693.35
977.89	5742.26
978.06	5681.23
978.22	5701.05
978.39	5665.17
978.56	5678.85
978.72	5672.30
978.89	5664.35
979.05	5655.10
979.22	5640.35
979.39	5612.66
979.55	5608.81
979.72	5581.04
979.88	5611.11
980.05	5556.96
980.22	5588.25
980.38	5539.59
980.55	5546.64
980.71	5513.54
980.88	5538.12
981.05	5513.87
981.21	5492.82
981.38	5492.49
981.54	5518.54
981.71	5477.99
981.88	5428.26
982.04	5457.35
982.21	5443.09
982.37	5428.35
982.54	5417.78
982.70	5391.40
982.87	5418.27
983.04	5346.92
983.20	5427.20
983.37	5365.84
983.53	5420.48
983.70	5378.38
983.86	5384.03
984.03	5359.04
984.20	5338.48
984.36	5332.91
984.53	5321.61
984.69	5293.10
984.86	5253.04
985.02	5269.10
985.19	5261.56
985.35	5248.12
985.52	5264.26
985.68	5244.03
985.85	5229.04
986.02	5213.23
986.18	5236.49
986.35	5217.00
986.51	5233.05
986.68	5211.26
986.84	5201.59
987.01	5185.29
987.17	5221.66
987.34	5178.74
987.50	5171.37
987.67	5109.60
987.83	5159.49
988.00	5111.07
988.16	5129.34
988.33	5088.63
988.49	5124.26
988.66	5080.52
988.82	5088.55
988.99	5068.48
989.15	5075.77
989.32	5038.17
989.48	5048.57
989.65	5036.45
989.81	5013.92
989.98	5010.40
990.14	5020.47
990.31	4983.12
990.47	4982.30
990.64	4940.93
990.80	4951.74
990.97	4932.08
991.13	4957.07
991.30	4923.64
991.46	4910.46
991.63	4902.67
991.79	4923.73
991.95	4845.90
992.12	4903.41
992.28	4896.61
992.45	4877.69
992.61	4876.38
992.78	4873.84
992.94	4838.37
993.11	4873.10
993.27	4872.85
993.44	4862.53
993.60	4853.19
993.76	4839.02
993.93	4845.49
994.09	4850.33
994.26	4814.28
994.42	4821.33
994.59	4795.28
994.75	4812.48
994.91	4773.32
995.08	4759.97
995.24	4754.89
995.41	4762.84
995.57	4764.56
995.74	4727.29
995.90	4717.95
996.06	4734.74
996.23	4728.02
996.39	4710.33
996.56	4676.58
996.72	4711.97
996.88	4679.04
997.05	4690.59
997.21	4646.68
997.38	4661.42
997.54	4633.65
997.70	4657.98
997.87	4649.22
998.03	4666.67
998.20	4613.17
998.36	4617.10
998.52	4583.35
998.69	4652.08
998.85	4593.10
999.02	4603.01
999.18	4562.38
999.34	4597.69
999.51	4563.53
999.67	4565.00
999.83	4561.81
1000.00	4555.09
1000.16	4535.84
1000.33	4548.13
1000.49	4535.02
1000.65	4560.50
1000.82	4569.67
1000.98	4546.90
1001.14	4506.60
1001.31	4533.88
1001.47	4521.51
1001.63	4514.13
1001.80	4495.46
1001.96	4477.35
1002.12	4465.96
1002.29	4492.67
1002.45	4473.50
1002.61	4463.10
1002.78	4449.09
1002.94	4437.70
1003.10	4395.60
1003.27	4444.75
1003.43	4396.74
1003.59	4395.68
1003.76	4409.19
1003.92	4403.38
1004.08	4393.22
1004.25	4404.85
1004.41	4393.71
1004.57	4391.25
1004.74	4336.78
1004.90	4393.55
1005.06	4351.03
1005.23	4335.96
1005.39	4346.36
1005.55	4348.82
1005.71	4324.33
1005.88	4340.55
1006.04	4356.85
1006.20	4330.63
1006.37	4264.03
1006.53	4303.27
1006.69	4282.22
1006.85	4309.34
1007.02	4268.29
1007.18	4288.04
1007.34	4264.36
1007.51	4290.82
1007.67	4219.80
1007.83	4269.69
1007.99	4231.76
1008.16	4232.74
1008.32	4226.76
1008.48	4242.08
1008.64	4217.91
1008.81	4228.81
1008.97	4210.95
1009.13	4196.29
1009.29	4205.22
1009.46	4207.43
1009.62	4193.58
1009.78	4181.71
1009.95	4199.32
1010.11	4165.90
1010.27	4149.59
1010.43	4164.18
1010.59	4173.02
1010.76	4154.67
1010.92	4146.48
1011.08	4164.83
1011.24	4153.03
1011.41	4170.40
1011.57	4121.58
1011.73	4120.84
1011.89	4103.97
1012.06	4132.47
1012.22	4087.50
1012.38	4115.84
1012.54	4100.69
1012.70	4084.63
1012.87	4074.80
1013.03	4102.41
1013.19	4099.79
1013.35	4093.89
1013.51	4058.34
1013.68	4078.90
1013.84	4045.31
1014.00	4060.63
1014.16	4013.12
1014.32	4053.01
1014.49	4018.28
1014.65	4082.01
1014.81	3989.28
1014.97	4044.66
1015.13	4021.39
1015.30	4024.26
1015.46	3997.72
1015.62	4001.16
1015.78	4006.07
1015.94	4009.84
1016.10	3987.64
1016.27	3992.15
1016.43	3994.44
1016.59	3986.41
1016.75	3967.73
1016.91	3979.20
1017.07	3954.38
1017.24	3955.61
1017.40	3932.18
1017.56	3940.13
1017.72	3925.46
1017.88	3948.81
1018.04	3930.38
1018.21	3930.05
1018.37	3937.02
1018.53	3937.67
1018.69	3925.55
1018.85	3908.75
1019.01	3892.37
1019.17	3925.14
1019.34	3888.36
1019.50	3901.30
1019.66	3876.48
1019.82	3888.03
1019.98	3855.59
1020.14	3894.99
1020.30	3864.93
1020.46	3893.11
1020.63	3836.99
1020.79	3862.47
1020.95	3860.50
1021.11	3848.54
1021.27	3824.79
1021.43	3843.05
1021.59	3846.66
1021.75	3831.01
1021.91	3805.13
1022.07	3800.95
1022.24	3809.14
1022.40	3806.35
1022.56	3794.23
1022.72	3806.19
1022.88	3788.66
1023.04	3794.39
1023.20	3788.41
1023.36	3797.26
1023.52	3777.44
1023.68	3788.09
1023.84	3794.48
1024.01	3783.01
1024.17	3754.01
1024.33	3772.52
1024.49	3762.53
1024.65	3751.96
1024.81	3740.74
1024.97	3755.40
1025.13	3743.44
1025.29	3753.68
1025.45	3732.30
1025.61	3744.34
1025.77	3741.48
1025.93	3738.53
1026.09	3714.69
1026.25	3748.60
1026.41	3712.72
1026.57	3735.17
1026.73	3727.39
1026.90	3720.83
1027.06	3718.70
1027.22	3730.42
1027.38	3704.04
1027.54	3738.94
1027.70	3704.04
1027.86	3723.53
1028.02	3700.27
1028.18	3700.02
1028.34	3680.45
1028.50	3708.05
1028.66	3688.80
1028.82	3716.65
1028.98	3666.03
1029.14	3689.37
1029.30	3672.83
1029.46	3681.92
1029.62	3684.05
1029.78	3649.56
1029.94	3664.14
1030.10	3656.69
1030.26	3637.44
1030.42	3633.18
1030.58	3623.68
1030.74	3639.90
1030.90	3628.10
1031.06	3626.62
1031.22	3622.77
1031.38	3625.89
1031.54	3616.88
1031.70	3624.33
1031.86	3613.60
1032.02	3602.87
1032.18	3578.95
1032.34	3609.50
1032.50	3599.43
1032.66	3613.52
1032.82	3571.90
1032.98	3591.48
1033.14	3605.00
1033.30	3611.31
1033.45	3566.66
1033.61	3599.84
1033.77	3564.61
1033.93	3586.24
1034.09	3570.92
1034.25	3570.51
1034.41	3557.90
1034.57	3562.15
1034.73	3567.15
1034.89	3560.60
1035.05	3559.94
1035.21	3547.49
1035.37	3538.89
1035.53	3554.70
1035.69	3541.68
1035.85	3580.34
1036.01	3541.02
1036.16	3557.90
1036.32	3535.37
1036.48	3544.87
1036.64	3521.03
1036.80	3533.07
1036.96	3502.27
1037.12	3515.05
1037.28	3535.78
1037.44	3508.01
1037.60	3519.80
1037.76	3503.17
1037.91	3507.43
1038.07	3505.06
1038.23	3508.50
1038.39	3508.66
1038.55	3495.88
1038.71	3513.82
1038.87	3500.14
1039.03	3527.75
1039.19	3495.88
1039.35	3502.52
1039.50	3506.04
1039.66	3498.42
1039.82	3476.71
1039.98	3475.89
1040.14	3480.07
1040.30	3483.02
1040.46	3481.38
1040.62	3480.15
1040.77	3472.95
1040.93	3490.56
1041.09	3467.95
1041.25	3470.24
1041.41	3484.09
1041.57	3480.89
1041.73	3480.89
1041.88	3480.89

