SpectraSuite Data File
++++++++++++++++++++++++++++++++++++
Date: Tue Sep 20 11:55:12 EDT 2022
User: Laboratoire
Dark Spectrum Present: No
Reference Spectrum Present: No
Number of Sampled Component Spectra: 1
Spectrometers: FLMT00174
Integration Time (usec): 15000 (FLMT00174)
Spectra Averaged: 25 (FLMT00174)
Boxcar Smoothing: 0 (FLMT00174)
Correct for Electrical Dark: No (FLMT00174)
Strobe/Lamp Enabled: No (FLMT00174)
Correct for Detector Non-linearity: No (FLMT00174)
Correct for Stray Light: No (FLMT00174)
Number of Pixels in Processed Spectrum: 3648
>>>>>Begin Processed Spectral Data<<<<<
345.74	3148.87
345.96	3148.87
346.18	3148.87
346.39	3171.73
346.61	3197.86
346.83	3208.92
347.05	3196.39
347.27	3205.64
347.49	3217.03
347.71	3211.79
347.93	3206.05
348.15	3218.42
348.36	3216.46
348.58	3221.78
348.80	3199.83
349.02	3211.05
349.24	3217.36
349.46	3314.19
349.68	3348.43
349.90	3350.39
350.11	3335.40
350.33	3339.34
350.55	3322.05
350.77	3343.68
350.99	3324.75
351.21	3338.52
351.43	3322.13
351.65	3351.38
351.86	3325.00
352.08	3348.76
352.30	3307.63
352.52	3331.31
352.74	3328.93
352.96	3310.42
353.18	3344.50
353.39	3323.28
353.61	3328.77
353.83	3348.84
354.05	3349.00
354.27	3346.87
354.49	3329.26
354.70	3361.95
354.92	3344.82
355.14	3315.99
355.36	3325.90
355.58	3332.70
355.80	3330.00
356.02	3344.82
356.23	3339.09
356.45	3339.58
356.67	3337.45
356.89	3367.93
357.11	3360.80
357.33	3348.76
357.54	3323.12
357.76	3352.93
357.98	3335.98
358.20	3344.99
358.42	3319.35
358.63	3344.17
358.85	3348.35
359.07	3354.82
359.29	3318.94
359.51	3342.12
359.73	3321.23
359.94	3349.33
360.16	3311.32
360.38	3326.88
360.60	3314.35
360.82	3348.92
361.03	3344.25
361.25	3347.12
361.47	3363.75
361.69	3345.56
361.91	3344.82
362.12	3346.71
362.34	3329.75
362.56	3350.97
362.78	3342.45
363.00	3348.10
363.21	3329.51
363.43	3354.25
363.65	3335.49
363.87	3359.41
364.09	3373.91
364.30	3323.61
364.52	3343.60
364.74	3358.75
364.96	3354.25
365.17	3346.14
365.39	3358.59
365.61	3338.43
365.83	3337.70
366.05	3354.25
366.26	3345.81
366.48	3343.60
366.70	3355.06
366.92	3348.51
367.13	3344.82
367.35	3349.58
367.57	3356.70
367.79	3357.03
368.01	3367.19
368.22	3370.96
368.44	3344.74
368.66	3367.60
368.88	3365.88
369.09	3347.61
369.31	3375.63
369.53	3365.96
369.75	3340.81
369.96	3368.58
370.18	3353.43
370.40	3380.05
370.62	3351.05
370.83	3343.35
371.05	3378.98
371.27	3379.64
371.49	3364.24
371.70	3378.90
371.92	3358.75
372.14	3356.46
372.36	3372.27
372.57	3370.06
372.79	3368.42
373.01	3375.87
373.22	3369.48
373.44	3364.65
373.66	3387.18
373.88	3372.84
374.09	3367.02
374.31	3364.48
374.53	3358.91
374.75	3400.28
374.96	3372.02
375.18	3385.29
375.40	3377.35
375.61	3369.89
375.83	3350.89
376.05	3354.98
376.27	3385.13
376.48	3366.45
376.70	3376.94
376.92	3365.63
377.13	3385.95
377.35	3369.32
377.57	3351.79
377.79	3372.10
378.00	3384.96
378.22	3379.64
378.44	3384.88
378.65	3407.74
378.87	3379.23
379.09	3401.68
379.30	3363.91
379.52	3402.25
379.74	3370.79
379.96	3401.92
380.17	3390.45
380.39	3397.66
380.61	3371.94
380.82	3395.94
381.04	3404.54
381.26	3409.29
381.47	3406.18
381.69	3414.70
381.91	3393.57
382.12	3411.18
382.34	3423.79
382.56	3415.11
382.77	3402.33
382.99	3402.74
383.21	3402.09
383.42	3420.11
383.64	3422.81
383.86	3430.68
384.07	3426.42
384.29	3428.05
384.51	3411.01
384.72	3437.80
384.94	3418.47
385.16	3421.58
385.37	3409.79
385.59	3426.25
385.81	3427.32
386.02	3441.08
386.24	3449.35
386.46	3441.08
386.67	3437.64
386.89	3462.46
387.11	3461.15
387.32	3441.32
387.54	3465.49
387.76	3477.86
387.97	3471.14
388.19	3475.40
388.40	3464.92
388.62	3450.34
388.84	3479.17
389.05	3471.06
389.27	3481.55
389.49	3497.36
389.70	3468.03
389.92	3492.11
390.14	3494.65
390.35	3487.69
390.57	3483.51
390.78	3495.64
391.00	3491.87
391.22	3489.74
391.43	3491.05
391.65	3521.52
391.86	3533.57
392.08	3514.72
392.30	3519.15
392.51	3530.70
392.73	3559.53
392.95	3519.48
393.16	3513.82
393.38	3555.44
393.59	3515.95
393.81	3557.32
394.03	3563.22
394.24	3545.61
394.46	3541.92
394.67	3565.19
394.89	3551.59
395.11	3557.08
395.32	3580.91
395.54	3583.78
395.75	3567.64
395.97	3571.33
396.19	3581.00
396.40	3607.54
396.62	3605.65
396.83	3595.33
397.05	3601.72
397.26	3603.03
397.48	3615.48
397.70	3608.19
397.91	3619.66
398.13	3610.98
398.34	3623.51
398.56	3666.27
398.78	3646.94
398.99	3690.44
399.21	3631.62
399.42	3688.15
399.64	3661.85
399.85	3666.27
400.07	3675.04
400.29	3716.74
400.50	3677.74
400.72	3699.86
400.93	3694.70
401.15	3692.16
401.36	3695.76
401.58	3716.90
401.79	3706.09
402.01	3750.40
402.23	3728.12
402.44	3754.91
402.66	3738.20
402.87	3753.44
403.09	3747.70
403.30	3759.33
403.52	3745.57
403.73	3733.77
403.95	3762.45
404.16	3790.79
404.38	3788.82
404.60	3782.43
404.81	3804.31
405.03	3812.66
405.24	3815.12
405.46	3830.44
405.67	3807.34
405.89	3836.58
406.10	3832.16
406.32	3848.13
406.53	3876.89
406.75	3879.75
406.96	3860.42
407.18	3896.71
407.39	3877.62
407.61	3894.99
407.82	3894.42
408.04	3918.67
408.25	3916.37
408.47	3911.95
408.68	3933.08
408.90	3935.38
409.12	3946.35
409.33	3968.64
409.55	3937.92
409.76	3967.57
409.98	3952.33
410.19	3992.31
410.41	3978.38
410.62	4006.97
410.84	3994.93
411.05	4035.65
411.27	4036.96
411.48	4037.04
411.70	4038.43
411.91	4052.36
412.12	4056.78
412.34	4056.12
412.55	4080.05
412.77	4060.79
412.98	4084.06
413.20	4099.21
413.41	4108.39
413.63	4088.56
413.84	4112.32
414.06	4141.65
414.27	4145.66
414.49	4162.21
414.70	4167.29
414.92	4174.09
415.13	4151.81
415.35	4170.57
415.56	4189.32
415.78	4190.72
415.99	4210.95
416.21	4223.24
416.42	4260.10
416.63	4266.33
416.85	4271.65
417.06	4268.29
417.28	4249.29
417.49	4298.52
417.71	4286.23
417.92	4292.05
418.14	4300.00
418.35	4337.19
418.57	4338.91
418.78	4337.76
418.99	4341.45
419.21	4373.56
419.42	4389.29
419.64	4370.94
419.85	4386.67
420.07	4458.67
420.28	4428.86
420.50	4415.83
420.71	4441.23
420.92	4437.54
421.14	4487.26
421.35	4478.33
421.57	4478.09
421.78	4516.34
422.00	4520.93
422.21	4537.15
422.42	4539.36
422.64	4546.65
422.85	4582.37
423.07	4611.86
423.28	4603.34
423.50	4614.07
423.71	4633.98
423.92	4670.11
424.14	4653.56
424.35	4637.91
424.57	4703.45
424.78	4724.17
424.99	4705.82
425.21	4726.55
425.42	4746.45
425.64	4727.04
425.85	4763.74
426.06	4761.86
426.28	4787.25
426.49	4811.99
426.71	4831.40
426.92	4819.53
427.13	4863.93
427.35	4914.96
427.56	4898.41
427.78	4903.57
427.99	4951.33
428.20	4965.83
428.42	5001.30
428.63	5019.90
428.84	4940.68
429.06	5009.50
429.27	5033.01
429.49	5034.89
429.70	5083.63
429.91	5069.95
430.13	5103.21
430.34	5113.12
430.56	5145.81
430.77	5183.00
430.98	5126.88
431.20	5213.56
431.41	5242.39
431.62	5226.42
431.84	5237.72
432.05	5285.89
432.26	5267.95
432.48	5276.71
432.69	5339.30
432.91	5306.94
433.12	5368.38
433.33	5340.69
433.55	5448.66
433.76	5436.13
433.97	5385.99
434.19	5443.99
434.40	5512.72
434.61	5540.74
434.83	5527.88
435.04	5506.41
435.25	5555.89
435.47	5564.90
435.68	5544.59
435.89	5652.15
436.11	5611.19
436.32	5683.77
436.53	5652.97
436.75	5661.98
436.96	5695.56
437.17	5688.27
437.39	5708.10
437.60	5747.09
437.81	5774.86
438.03	5797.80
438.24	5781.99
438.45	5874.64
438.67	5830.24
438.88	5892.17
439.09	5959.83
439.31	5943.29
439.52	5995.47
439.73	5967.21
439.94	5958.20
440.16	6002.68
440.37	5988.75
440.58	6066.00
440.80	6076.49
441.01	6049.13
441.22	6203.38
441.44	6187.16
441.65	6140.30
441.86	6180.20
442.08	6229.51
442.29	6207.56
442.50	6283.41
442.71	6241.31
442.93	6297.42
443.14	6292.18
443.35	6403.75
443.57	6297.18
443.78	6400.31
443.99	6421.61
444.20	6398.76
444.42	6472.07
444.63	6485.84
444.84	6525.16
445.06	6574.39
445.27	6532.86
445.48	6521.14
445.69	6597.16
445.91	6591.10
446.12	6571.60
446.33	6654.34
446.54	6724.79
446.76	6643.69
446.97	6726.27
447.18	6714.39
447.39	6760.43
447.61	6814.58
447.82	6841.94
448.03	6806.06
448.25	6888.14
448.46	6944.58
448.67	6974.40
448.88	6939.83
449.10	7011.92
449.31	7043.87
449.52	6997.75
449.73	7050.34
449.95	7164.12
450.16	7071.96
450.37	7192.47
450.58	7353.27
450.79	7168.38
451.01	7266.03
451.22	7208.69
451.43	7263.90
451.64	7360.40
451.86	7368.67
452.07	7388.33
452.28	7472.63
452.49	7581.50
452.71	7446.50
452.92	7436.91
453.13	7546.60
453.34	7567.90
453.55	7655.55
453.77	7719.04
453.98	7695.78
454.19	7657.85
454.40	7747.14
454.62	7829.30
454.83	7729.85
455.04	7890.00
455.25	7793.18
455.46	8079.56
455.68	7948.90
455.89	7943.58
456.10	8005.92
456.31	8024.92
456.52	8090.05
456.74	8082.02
456.95	8238.73
457.16	8172.21
457.37	8303.45
457.58	8261.18
457.80	8245.78
458.01	8272.81
458.22	8617.12
458.43	8445.58
458.64	8508.49
458.86	8430.75
459.07	8528.97
459.28	8482.03
459.49	8670.03
459.70	8872.13
459.91	8782.26
460.13	8782.26
460.34	8854.52
460.55	8835.10
460.76	8947.08
460.97	8981.57
461.19	8979.44
461.40	9228.72
461.61	9090.69
461.82	9106.99
462.03	9217.09
462.24	9196.36
462.46	9198.49
462.67	9210.62
462.88	9394.85
463.09	9382.40
463.30	9529.85
463.51	9421.72
463.72	9638.72
463.94	9632.58
464.15	9691.56
464.36	9574.42
464.57	9903.24
464.78	9855.15
464.99	9926.50
465.20	9872.60
465.42	10032.43
465.63	10060.69
465.84	10050.12
466.05	10192.66
466.26	10271.63
466.47	10324.14
466.68	10269.01
466.90	10458.24
467.11	10413.59
467.32	10546.96
467.53	10650.34
467.74	10515.83
467.95	10645.59
468.16	10818.85
468.37	10897.73
468.59	10879.79
468.80	11080.00
469.01	10935.74
469.22	11113.92
469.43	11365.49
469.64	11224.67
469.85	11371.63
470.06	11406.69
470.28	11583.97
470.49	11400.06
470.70	11590.36
470.91	11866.67
471.12	11724.78
471.33	11980.45
471.54	11939.66
471.75	11986.19
471.96	12280.19
472.17	12233.50
472.39	12486.06
472.60	12313.53
472.81	12593.29
473.02	12577.48
473.23	12752.05
473.44	12861.74
473.65	12793.74
473.86	12939.07
474.07	13035.81
474.28	13121.01
474.49	13426.97
474.71	13381.35
474.92	13512.83
475.13	13484.89
475.34	13557.39
475.55	13642.01
475.76	13736.79
475.97	14077.08
476.18	14053.57
476.39	14263.94
476.60	14364.86
476.81	14435.64
477.02	14621.84
477.23	14647.48
477.44	14699.99
477.65	14920.19
477.87	15097.87
478.08	15143.58
478.29	15194.95
478.50	15544.49
478.71	15435.38
478.92	15615.76
479.13	15716.44
479.34	15831.95
479.55	15970.80
479.76	15996.85
479.97	16073.52
480.18	16540.13
480.39	16310.92
480.60	16627.87
480.81	16793.02
481.02	16818.33
481.23	16855.68
481.44	17176.23
481.65	17329.17
481.86	17579.27
482.07	17189.26
482.28	17959.54
482.49	17711.33
482.71	17823.14
482.92	18058.82
483.13	18233.15
483.34	18170.23
483.55	18350.37
483.76	18409.35
483.97	18772.25
484.18	18727.94
484.39	18948.54
484.60	18900.70
484.81	19302.84
485.02	19208.47
485.23	19528.86
485.44	19672.38
485.65	19871.03
485.86	19783.13
486.07	20145.62
486.28	20154.63
486.49	20373.77
486.70	20566.44
486.91	20724.38
487.12	20707.91
487.33	20650.24
487.54	21113.74
487.75	21106.20
487.96	21182.96
488.17	21141.51
488.38	21506.54
488.59	21605.66
488.80	21787.85
489.01	21832.66
489.22	22195.07
489.43	22096.44
489.64	22046.88
489.85	22592.86
490.06	22275.26
490.26	22652.83
490.47	22540.44
490.68	22989.60
490.89	23177.60
491.10	22954.45
491.31	23354.95
491.52	23620.53
491.73	23561.39
491.94	23537.96
492.15	23850.89
492.36	23988.92
492.57	23941.00
492.78	24009.98
492.99	24162.67
493.20	24447.34
493.41	24432.10
493.62	24603.40
493.83	24644.52
494.04	24784.11
494.25	25125.87
494.46	25215.57
494.67	25056.90
494.88	25310.68
495.08	25427.09
495.29	25534.40
495.50	25796.54
495.71	25713.97
495.92	25997.57
496.13	26040.09
496.34	25924.42
496.55	26198.11
496.76	26570.18
496.97	26236.04
497.18	26618.19
497.39	26576.57
497.60	27009.35
497.81	26666.27
498.02	26985.76
498.22	26793.66
498.43	27284.76
498.64	27373.40
498.85	27391.34
499.06	27526.26
499.27	27889.57
499.48	27296.80
499.69	27792.25
499.90	27876.38
500.11	28070.52
500.32	28356.67
500.52	28157.77
500.73	28705.89
500.94	28696.06
501.15	28809.02
501.36	28857.44
501.57	28689.09
501.78	29016.60
501.99	29219.76
502.20	29180.93
502.41	29253.27
502.61	29227.87
502.82	29632.55
503.03	29325.27
503.24	29819.41
503.45	29628.05
503.66	30049.11
503.87	29970.22
504.08	30250.63
504.28	30138.48
504.49	30294.45
504.70	30433.06
504.91	30697.74
505.12	30445.84
505.33	30927.11
505.54	30944.73
505.75	31037.70
505.95	31263.47
506.16	31228.98
506.37	31032.95
506.58	31625.31
506.79	31241.52
507.00	31685.27
507.21	31435.26
507.41	31482.28
507.62	31631.53
507.83	32167.45
508.04	31797.34
508.25	32335.79
508.46	32023.10
508.67	32556.48
508.87	32254.93
509.08	32693.45
509.29	32622.09
509.50	32890.30
509.71	32953.29
509.92	33136.38
510.12	32876.21
510.33	33143.59
510.54	33095.83
510.75	33385.33
510.96	33542.78
511.17	33721.61
511.37	33652.63
511.58	33900.03
511.79	33782.47
512.00	33741.76
512.21	34313.14
512.42	34269.73
512.62	34380.15
512.83	34692.34
513.04	34519.58
513.25	34906.32
513.46	34259.81
513.66	35156.66
513.87	34893.86
514.08	35212.94
514.29	35114.80
514.50	35088.59
514.71	35413.15
514.91	35297.72
515.12	35364.08
515.33	35707.15
515.54	35580.67
515.75	36014.35
515.95	35748.61
516.16	35802.51
516.37	36289.76
516.58	36356.69
516.78	36200.96
516.99	36510.86
517.20	36445.90
517.41	36532.73
517.62	36802.00
517.82	36624.97
518.03	37139.67
518.24	37544.59
518.45	36985.17
518.66	37439.41
518.86	37184.97
519.07	37708.27
519.28	37053.82
519.49	37851.46
519.69	37864.40
519.90	37956.48
520.11	38065.51
520.32	38038.97
520.52	38389.58
520.73	38086.65
520.94	38648.12
521.15	38569.72
521.36	38279.49
521.56	39032.73
521.77	38485.51
521.98	39108.18
522.19	38760.35
522.39	39113.75
522.60	39022.57
522.81	39149.71
523.02	39057.63
523.22	39478.04
523.43	39577.73
523.64	39550.45
523.84	39628.77
524.05	39969.47
524.26	40008.30
524.47	39904.34
524.67	40099.80
524.88	40339.66
525.09	40588.86
525.30	40331.55
525.50	40297.64
525.71	40521.68
525.92	40645.79
526.13	40997.47
526.33	40778.50
526.54	40630.72
526.75	41058.25
526.95	41426.07
527.16	40745.98
527.37	41443.92
527.58	41617.92
527.78	41602.27
527.99	41986.06
528.20	42094.28
528.40	41933.39
528.61	41764.80
528.82	42192.99
529.03	42129.01
529.23	42077.65
529.44	42454.64
529.65	42399.83
529.85	42559.49
530.06	42492.48
530.27	42667.22
530.47	42263.52
530.68	43268.09
530.89	42463.49
531.09	43159.06
531.30	43055.35
531.51	42762.82
531.72	43403.09
531.92	43380.07
532.13	43505.74
532.34	43458.80
532.54	43496.89
532.75	43808.92
532.96	43709.06
533.16	44049.27
533.37	44253.74
533.58	43867.33
533.78	44235.22
533.99	44458.45
534.20	44060.82
534.40	44392.43
534.61	44618.85
534.82	44714.04
535.02	44832.41
535.23	44820.70
535.44	45076.04
535.64	44944.72
535.85	45116.34
536.06	45128.55
536.26	45039.83
536.47	45259.62
536.68	45893.75
536.88	45176.72
537.09	45890.23
537.29	45366.52
537.50	46212.74
537.71	45789.22
537.91	46039.48
538.12	46300.48
538.33	45869.09
538.53	46100.19
538.74	46357.66
538.95	46295.48
539.15	46208.07
539.36	46564.58
539.56	46839.75
539.77	46440.72
539.98	46522.40
540.18	46883.49
540.39	46651.66
540.60	47001.62
540.80	47266.71
541.01	47318.48
541.21	47083.37
541.42	47486.25
541.63	47300.54
541.83	47557.77
542.04	47495.43
542.25	47562.27
542.45	47742.82
542.66	47779.52
542.86	48084.75
543.07	47052.25
543.28	48079.75
543.48	47959.58
543.69	48107.36
543.89	48061.08
544.10	48599.45
544.31	48364.83
544.51	48222.37
544.72	48417.91
544.92	48459.77
545.13	48816.86
545.33	48845.69
545.54	48619.76
545.75	49002.32
545.95	48763.45
546.16	48777.45
546.36	49388.90
546.57	48513.92
546.78	47821.95
546.98	48510.07
547.19	47744.21
547.39	48905.17
547.60	49287.24
547.80	49822.90
548.01	49906.21
548.22	49434.20
548.42	49636.21
548.63	49981.50
548.83	49690.19
549.04	50068.17
549.24	49781.37
549.45	50108.96
549.65	50536.58
549.86	49802.67
550.07	50032.45
550.27	50504.22
550.48	50586.63
550.68	50461.87
550.89	50478.42
551.09	50708.53
551.30	50451.30
551.50	50799.78
551.71	50559.92
551.91	50611.12
552.12	50881.95
552.33	51237.15
552.53	50786.02
552.74	51408.60
552.94	51438.83
553.15	51128.03
553.35	51365.10
553.56	50994.67
553.76	51517.96
553.97	51136.63
554.17	51444.16
554.38	52225.33
554.58	51502.48
554.79	52135.30
554.99	51497.73
555.20	51694.99
555.40	52220.50
555.61	51932.39
555.81	51563.02
556.02	52527.53
556.22	52256.46
556.43	52037.66
556.63	52152.83
556.84	52122.20
557.04	52678.43
557.25	52004.23
557.45	52492.39
557.66	52516.23
557.86	52435.45
558.07	53076.96
558.27	52618.05
558.48	52704.48
558.68	52894.36
558.89	53018.39
559.09	53078.27
559.30	52922.71
559.50	53139.22
559.71	52659.01
559.91	53419.22
560.12	53059.27
560.32	53146.02
560.53	53387.76
560.73	53233.75
560.94	53668.41
561.14	53252.92
561.35	53851.01
561.55	53458.54
561.76	53806.86
561.96	53071.64
562.17	53755.74
562.37	53943.50
562.57	53657.44
562.78	53732.06
562.98	54116.18
563.19	54124.29
563.39	54282.56
563.60	54507.18
563.80	53819.14
564.01	54559.77
564.21	54208.91
564.42	54208.18
564.62	54455.33
564.82	54659.55
565.03	54322.62
565.23	54430.42
565.44	54624.49
565.64	54431.40
565.85	54813.39
566.05	54582.63
566.25	54836.90
566.46	54546.09
566.66	54762.52
566.87	54838.54
567.07	54868.77
567.28	54969.04
567.48	55224.71
567.68	54567.47
567.89	55561.56
568.09	54964.29
568.30	55089.13
568.50	55445.07
568.71	55299.01
568.91	55672.56
569.11	55259.85
569.32	55356.19
569.52	55595.06
569.73	54986.16
569.93	55672.80
570.13	55466.37
570.34	55324.24
570.54	55840.49
570.75	55600.22
570.95	55673.70
571.15	55561.88
571.36	56267.86
571.56	55591.95
571.77	55563.77
571.97	55163.92
572.17	56011.62
572.38	55851.14
572.58	56138.67
572.79	55960.66
572.99	56269.17
573.19	56157.43
573.40	56190.04
573.60	56381.15
573.81	56261.47
574.01	56539.01
574.21	56399.83
574.42	56275.64
574.62	56114.59
574.82	56574.48
575.03	56250.41
575.23	56788.04
575.43	56358.30
575.64	56390.16
575.84	56806.07
576.05	56343.39
576.25	56566.45
576.45	56447.59
576.66	57059.77
576.86	56604.38
577.06	56964.74
577.27	56819.83
577.47	56926.57
577.67	56773.87
577.88	56366.49
578.08	57004.06
578.28	57297.58
578.49	56940.58
578.69	57200.26
578.89	56838.75
579.10	57063.70
579.30	57713.73
579.50	57126.86
579.71	56751.59
579.91	57484.27
580.11	57159.79
580.32	57168.15
580.52	57173.72
580.72	57794.82
580.93	57081.48
581.13	57081.07
581.33	57625.99
581.54	57223.28
581.74	57252.60
581.94	57529.82
582.15	57850.20
582.35	57534.81
582.55	57765.01
582.76	57404.32
582.96	57962.10
583.16	57516.06
583.37	57755.59
583.57	57488.37
583.77	57996.02
583.97	57031.75
584.18	58265.86
584.38	58055.74
584.58	57682.60
584.79	58249.06
584.99	58188.44
585.19	57982.42
585.40	57923.93
585.60	58289.86
585.80	57702.99
586.00	58123.56
586.21	58025.67
586.41	58167.39
586.61	58475.65
586.82	58320.33
587.02	58110.79
587.22	58579.69
587.42	57965.54
587.63	58554.46
587.83	57868.39
588.03	58281.67
588.23	57926.96
588.44	58364.32
588.64	58059.67
588.84	58448.13
589.05	58672.91
589.25	58695.36
589.45	58570.43
589.65	58401.19
589.86	58711.09
590.06	58690.85
590.26	58386.03
590.46	58718.62
590.67	58095.06
590.87	58819.38
591.07	59049.49
591.27	58557.57
591.48	59008.78
591.68	58395.78
591.88	59381.02
592.08	58499.82
592.29	58997.47
592.49	58852.81
592.69	59083.08
592.89	58667.59
593.10	58808.32
593.30	58624.33
593.50	59315.81
593.70	58172.80
593.90	59029.42
594.11	58849.53
594.31	58916.13
594.51	59215.13
594.71	59207.19
594.92	59296.72
595.12	59098.56
595.32	59222.50
595.52	59460.97
595.72	58765.40
595.93	59559.35
596.13	59157.13
596.33	58982.48
596.53	59470.80
596.73	59317.12
596.94	59221.03
597.14	59596.71
597.34	59290.58
597.54	59721.80
597.74	59246.92
597.95	59432.30
598.15	59453.35
598.35	59580.24
598.55	59757.93
598.75	59284.93
598.96	59977.55
599.16	59616.70
599.36	59573.12
599.56	59463.59
599.76	59401.50
599.97	59936.75
600.17	59615.47
600.37	59780.21
600.57	59147.39
600.77	60061.03
600.97	59778.82
601.18	60342.74
601.38	59793.64
601.58	60075.69
601.78	59923.40
601.98	59661.18
602.18	60084.45
602.39	60405.58
602.59	60091.25
602.79	59938.23
602.99	59999.18
603.19	60003.52
603.39	59834.44
603.60	59906.85
603.80	59943.88
604.00	59782.01
604.20	59933.31
604.40	60153.35
604.60	60037.76
604.80	59945.27
605.01	60200.45
605.21	60009.33
605.41	60021.95
605.61	59717.13
605.81	60147.70
606.01	60514.04
606.21	59847.14
606.42	60243.95
606.62	59872.20
606.82	60394.76
607.02	60140.49
607.22	60328.33
607.42	60684.18
607.62	59984.76
607.82	60398.28
608.03	60333.57
608.23	60136.39
608.43	59939.13
608.63	60505.43
608.83	60277.37
609.03	60222.24
609.23	60334.63
609.43	60519.20
609.63	60238.22
609.84	60105.26
610.04	60642.48
610.24	60467.59
610.44	60555.57
610.64	60230.35
610.84	60539.84
611.04	61000.88
611.24	60627.17
611.44	59933.97
611.64	60566.79
611.85	60677.79
612.05	60618.65
612.25	60699.66
612.45	60408.20
612.65	60668.78
612.85	60741.03
613.05	60278.77
613.25	60905.69
613.45	60659.36
613.65	60692.54
613.85	60327.26
614.05	60655.84
614.25	60705.56
614.46	60344.71
614.66	60246.33
614.86	60106.65
615.06	60302.11
615.26	60694.58
615.46	59880.15
615.66	60712.28
615.86	60748.65
616.06	60322.26
616.26	60386.08
616.46	60948.53
616.66	60458.00
616.86	60906.18
617.06	60417.70
617.26	60998.75
617.46	60556.63
617.66	60335.13
617.86	60195.62
618.07	60463.00
618.27	60403.04
618.47	60420.73
618.67	60500.68
618.87	60628.80
619.07	60218.56
619.27	60195.78
619.47	60331.68
619.67	60761.59
619.87	60395.83
620.07	60752.99
620.27	60711.30
620.47	60364.37
620.67	60664.60
620.87	60611.85
621.07	60752.50
621.27	60626.84
621.47	60247.31
621.67	60580.47
621.87	60192.67
622.07	60719.98
622.27	60448.66
622.47	60194.47
622.67	60309.65
622.87	59801.83
623.07	60347.25
623.27	60778.47
623.47	59812.16
623.67	60308.75
623.87	60770.03
624.07	60657.48
624.27	60228.14
624.47	60541.48
624.67	60277.62
624.87	60511.91
625.07	60155.81
625.27	60650.18
625.47	60178.17
625.67	59978.21
625.87	60313.17
626.07	60154.08
626.27	60385.59
626.47	60274.18
626.67	60124.02
626.87	59762.19
627.07	60341.60
627.27	60189.47
627.47	60381.90
627.67	60147.12
627.87	60045.46
628.07	60529.76
628.27	60159.41
628.47	59854.18
628.67	60449.81
628.86	60541.23
629.06	60084.70
629.26	60015.81
629.46	60468.49
629.66	60302.03
629.86	59700.91
630.06	60257.79
630.26	60133.11
630.46	60468.49
630.66	59785.86
630.86	59953.88
631.06	60133.85
631.26	59841.48
631.46	60320.95
631.66	60218.72
631.86	59866.63
632.06	60402.79
632.26	60049.72
632.45	60130.74
632.65	60094.61
632.85	60228.71
633.05	60085.76
633.25	60167.93
633.45	59903.09
633.65	59983.69
633.85	60566.30
634.05	59518.97
634.25	59881.79
634.45	59902.92
634.65	60263.69
634.84	59767.92
635.04	59906.61
635.24	59565.74
635.44	60043.25
635.64	59625.63
635.84	60042.10
636.04	59744.00
636.24	59851.89
636.44	59849.76
636.64	59175.40
636.84	60164.73
637.03	59465.31
637.23	59832.06
637.43	59899.56
637.63	59637.42
637.83	59921.35
638.03	59908.49
638.23	59402.64
638.43	59857.78
638.62	60053.49
638.82	59031.14
639.02	59994.59
639.22	59640.45
639.42	59885.47
639.62	59392.24
639.82	59644.80
640.02	59677.81
640.21	59804.21
640.41	59216.20
640.61	59620.14
640.81	59529.04
641.01	59502.42
641.21	59200.96
641.41	59907.76
641.61	59305.08
641.80	59383.97
642.00	59755.88
642.20	59708.12
642.40	58947.18
642.60	59582.78
642.80	59592.61
642.99	59093.07
643.19	59560.09
643.39	58874.84
643.59	59387.49
643.79	59172.94
643.99	59441.47
644.19	59304.67
644.38	58790.71
644.58	59351.04
644.78	59123.87
644.98	59024.26
645.18	59251.91
645.38	59488.41
645.57	59133.95
645.77	59189.98
645.97	58956.68
646.17	59309.50
646.37	59174.34
646.56	58957.58
646.76	59011.65
646.96	59009.11
647.16	58703.30
647.36	58874.10
647.55	58616.55
647.75	58826.67
647.95	58437.56
648.15	58873.86
648.35	58760.07
648.55	58848.71
648.74	58672.17
648.94	58693.64
649.14	58934.56
649.34	58475.65
649.54	58418.88
649.73	58522.75
649.93	58209.91
650.13	58459.35
650.33	58118.49
650.52	58591.98
650.72	58781.86
650.92	58341.47
651.12	58127.74
651.32	58503.18
651.51	58712.15
651.71	58636.87
651.91	58247.51
652.11	58094.32
652.30	58019.36
652.50	58550.53
652.70	58484.01
652.90	58191.89
653.10	58509.65
653.29	58257.58
653.49	58629.25
653.69	58212.36
653.89	58271.92
654.08	58208.27
654.28	58645.14
654.48	58303.70
654.68	58488.59
654.87	58381.85
655.07	57944.33
655.27	58516.04
655.47	58144.37
655.66	58114.64
655.86	57927.12
656.06	58561.67
656.26	57575.20
656.45	57947.85
656.65	57894.27
656.85	57797.69
657.04	57576.51
657.24	57671.78
657.44	57467.56
657.64	58098.42
657.83	57073.53
658.03	57779.83
658.23	57585.19
658.43	57461.99
658.62	57560.29
658.82	57393.75
659.02	57388.67
659.21	57369.99
659.41	57114.16
659.61	57603.38
659.81	57175.27
660.00	56927.55
660.20	57364.51
660.40	57058.38
660.59	57217.71
660.79	56795.01
660.99	57384.00
661.19	57306.59
661.38	57289.80
661.58	56559.65
661.78	57037.08
661.97	56712.43
662.17	57377.78
662.37	56620.60
662.56	56575.79
662.76	56605.36
662.96	56837.69
663.15	56831.54
663.35	56898.22
663.55	56527.46
663.74	56293.99
663.94	56785.01
664.14	56237.80
664.33	56639.28
664.53	56319.14
664.73	56879.55
664.93	56071.58
665.12	56646.98
665.32	56275.15
665.52	56347.89
665.71	56169.56
665.91	56314.14
666.10	56067.81
666.30	56417.77
666.50	55900.62
666.69	55871.37
666.89	56287.36
667.09	56543.84
667.28	55976.23
667.48	55781.59
667.68	55793.96
667.87	55824.60
668.07	55499.30
668.27	55968.69
668.46	55923.15
668.66	55602.76
668.86	55967.46
669.05	55474.07
669.25	55817.47
669.44	55560.25
669.64	55409.84
669.84	55576.87
670.03	56005.72
670.23	55501.26
670.43	55442.20
670.62	55334.48
670.82	55307.61
671.01	55670.67
671.21	55149.18
671.41	55240.43
671.60	55553.69
671.80	55756.52
672.00	55377.89
672.19	55695.33
672.39	55491.11
672.58	55470.54
672.78	55255.10
672.98	55695.49
673.17	55300.97
673.37	54602.78
673.56	54862.54
673.76	55019.83
673.96	55372.98
674.15	55065.70
674.35	55166.87
674.54	55070.54
674.74	54980.10
674.94	54880.16
675.13	55004.51
675.33	54502.92
675.52	55094.29
675.72	54869.01
675.91	54865.57
676.11	55259.77
676.31	54550.19
676.50	54710.50
676.70	54646.52
676.89	54757.36
677.09	54798.40
677.28	54867.79
677.48	54192.37
677.68	54684.62
677.87	54352.27
678.07	54343.26
678.26	54289.19
678.46	54387.17
678.65	54182.13
678.85	54619.49
679.04	53919.66
679.24	54259.70
679.44	53969.06
679.63	54248.32
679.83	54016.24
680.02	54136.83
680.22	53842.65
680.41	54041.64
680.61	53818.65
680.80	53822.83
681.00	53927.44
681.19	53963.73
681.39	53655.06
681.59	53458.46
681.78	53385.71
681.98	53759.59
682.17	53137.33
682.37	53685.62
682.56	53182.39
682.76	53626.80
682.95	53381.94
683.15	53422.66
683.34	53290.36
683.54	53346.39
683.73	53357.12
683.93	52735.52
684.12	53066.64
684.32	53225.56
684.51	52614.28
684.71	52991.93
684.90	52834.32
685.10	52833.66
685.29	52525.32
685.49	52868.31
685.68	52710.95
685.88	52696.94
686.07	52383.76
686.27	52873.47
686.46	52658.68
686.66	52454.95
686.85	52798.93
687.05	52504.43
687.24	52388.11
687.44	52713.00
687.63	52568.49
687.83	52004.64
688.02	52570.37
688.22	52660.73
688.41	52277.84
688.61	52311.02
688.80	52494.52
689.00	52055.93
689.19	51849.98
689.39	52298.08
689.58	52221.56
689.77	52135.80
689.97	52289.39
690.16	51901.34
690.36	51448.50
690.55	51298.67
690.75	52000.63
690.94	51399.02
691.14	51722.35
691.33	51106.08
691.53	51606.52
691.72	51301.86
691.91	51541.48
692.11	51456.20
692.30	51619.54
692.50	51636.99
692.69	51106.73
692.89	51240.51
693.08	51064.30
693.28	50982.22
693.47	51250.17
693.66	51060.28
693.86	50953.95
694.05	50835.42
694.25	50906.28
694.44	51145.56
694.64	50914.47
694.83	51009.82
695.02	50971.32
695.22	51026.04
695.41	50558.12
695.61	50445.89
695.80	50445.32
695.99	50378.15
696.19	50304.91
696.38	50348.82
696.58	49919.48
696.77	50473.75
696.96	50282.71
697.16	50140.91
697.35	50238.72
697.55	50119.04
697.74	49837.57
697.93	50564.27
698.13	49851.57
698.32	50212.67
698.52	49883.77
698.71	49373.50
698.90	50133.54
699.10	49636.21
699.29	49650.38
699.49	50128.54
699.68	49625.72
699.87	49532.50
700.07	49855.34
700.26	49552.73
700.45	49481.96
700.65	49193.19
700.84	49637.77
701.04	49057.29
701.23	49461.80
701.42	49091.53
701.62	48994.21
701.81	49009.20
702.00	48849.22
702.20	48624.18
702.39	48889.68
702.58	49141.17
702.78	48826.93
702.97	48855.52
703.17	48865.52
703.36	48860.77
703.55	48738.87
703.75	48513.02
703.94	48628.12
704.13	48295.12
704.33	48099.17
704.52	48686.20
704.71	48415.87
704.91	48530.06
705.10	48267.67
705.29	48427.91
705.49	48460.92
705.68	48452.32
705.87	48427.25
706.07	47876.35
706.26	48209.68
706.45	47737.91
706.65	47552.93
706.84	47941.15
707.03	48263.00
707.23	47492.31
707.42	47484.94
707.61	47907.81
707.80	47536.80
708.00	47481.01
708.19	47337.73
708.38	47756.75
708.58	46932.40
708.77	47642.06
708.96	47219.28
709.16	47048.07
709.35	47744.46
709.54	47191.18
709.74	46977.62
709.93	46567.37
710.12	47223.87
710.31	47400.32
710.51	46855.89
710.70	46857.28
710.89	46986.47
711.09	46276.56
711.28	46316.21
711.47	46710.24
711.66	46630.86
711.86	46582.93
712.05	46408.36
712.24	46770.20
712.43	46253.87
712.63	45793.32
712.82	46390.18
713.01	46166.70
713.21	45693.87
713.40	45863.69
713.59	46225.44
713.78	45580.49
713.98	46049.48
714.17	45724.18
714.36	45781.69
714.55	45245.20
714.75	45402.65
714.94	45431.07
715.13	45707.71
715.32	45116.26
715.52	45402.07
715.71	45038.76
715.90	45224.64
716.09	45008.45
716.29	45372.26
716.48	45300.99
716.67	44730.50
716.86	45122.49
717.06	45071.12
717.25	45145.59
717.44	45186.87
717.63	45089.31
717.82	44397.42
718.02	44755.16
718.21	44819.55
718.40	44869.11
718.59	44580.68
718.79	44360.48
718.98	44319.93
719.17	44538.57
719.36	44614.75
719.55	44395.87
719.75	44312.64
719.94	44240.22
720.13	44581.08
720.32	44359.74
720.51	43965.06
720.71	43974.31
720.90	43474.20
721.09	43809.74
721.28	43555.54
721.47	43988.48
721.67	43684.32
721.86	43695.79
722.05	43644.92
722.24	43259.49
722.43	43741.09
722.63	43346.65
722.82	43373.68
723.01	43476.41
723.20	43016.19
723.39	43182.65
723.58	43435.12
723.78	42729.07
723.97	43215.91
724.16	42745.37
724.35	42972.53
724.54	42697.94
724.73	42844.08
724.93	42604.39
725.12	42871.03
725.31	42057.91
725.50	42535.66
725.69	42675.74
725.88	42320.78
726.08	41922.41
726.27	42471.60
726.46	41700.74
726.65	42504.12
726.84	41816.16
727.03	42028.58
727.23	42382.06
727.42	41922.41
727.61	41880.96
727.80	41659.78
727.99	41862.69
728.18	41853.60
728.37	41546.57
728.56	41446.46
728.76	41312.85
728.95	41537.64
729.14	41389.12
729.33	41352.99
729.52	41376.26
729.71	41336.61
729.90	41188.26
730.09	40850.34
730.29	41194.65
730.48	40660.04
730.67	41125.59
730.86	40620.31
731.05	41009.26
731.24	40747.37
731.43	40851.24
731.62	40497.44
731.81	40440.83
732.01	40924.56
732.20	40475.64
732.39	40801.60
732.58	40705.92
732.77	40012.48
732.96	40594.43
733.15	40621.95
733.34	40207.03
733.53	40314.84
733.72	40443.94
733.92	40224.65
734.11	40119.46
734.30	40107.75
734.49	40244.47
734.68	40035.99
734.87	39946.20
735.06	39735.75
735.25	39826.52
735.44	39417.91
735.63	39606.98
735.82	39655.23
736.01	39441.26
736.20	39325.01
736.40	39671.94
736.59	39428.48
736.78	39661.37
736.97	39253.01
737.16	39337.79
737.35	39463.62
737.54	39418.57
737.73	39263.74
737.92	39412.67
738.11	39467.55
738.30	39123.17
738.49	39073.77
738.68	38995.13
738.87	39067.79
739.06	38846.20
739.25	38944.67
739.44	38905.10
739.63	38698.01
739.82	38525.73
740.01	38812.37
740.20	38411.46
740.39	38531.63
740.59	38415.96
740.78	38407.44
740.97	38241.64
741.16	38067.15
741.35	38152.76
741.54	38061.58
741.73	38033.97
741.92	37921.83
742.11	37924.61
742.30	38036.19
742.49	37605.62
742.68	37950.75
742.87	37807.71
743.06	37419.50
743.25	37763.40
743.44	37459.31
743.63	37779.62
743.82	37373.38
744.01	37464.07
744.20	37159.49
744.39	37520.59
744.58	37334.31
744.77	37139.91
744.96	36849.27
745.15	37288.60
745.34	36951.42
745.53	37034.40
745.72	36791.02
745.91	36875.48
746.10	36602.85
746.29	36931.92
746.48	36906.94
746.67	36716.64
746.86	36774.56
747.04	36721.47
747.23	36447.45
747.42	36823.05
747.61	36431.81
747.80	36930.77
747.99	36181.30
748.18	36579.02
748.37	36468.43
748.56	35935.71
748.75	36125.02
748.94	36074.15
749.13	36053.02
749.32	35807.83
749.51	35919.00
749.70	35966.92
749.89	35793.41
750.08	35974.54
750.27	35543.23
750.46	35672.99
750.65	36030.82
750.84	35564.12
751.02	35775.97
751.21	35527.18
751.40	35646.29
751.59	35720.18
751.78	35583.38
751.97	35704.29
752.16	35424.78
752.35	35764.50
752.54	35400.04
752.73	35635.80
752.92	35200.81
753.11	35237.10
753.30	35277.33
753.49	35382.02
753.67	35076.79
753.86	34882.40
754.05	35079.90
754.24	34829.56
754.43	34831.52
754.62	34913.44
754.81	34693.16
755.00	34838.98
755.19	34783.77
755.38	34386.71
755.56	34757.06
755.75	34873.39
755.94	34430.78
756.13	34464.36
756.32	34597.73
756.51	34350.09
756.70	34502.70
756.89	34320.52
757.08	34178.06
757.26	34329.44
757.45	34231.55
757.64	34006.77
757.83	34346.16
758.02	34065.34
758.21	34014.30
758.40	34005.46
758.59	34008.16
758.77	33802.63
758.96	33835.64
759.15	33995.71
759.34	33573.99
759.53	33700.96
759.72	33668.93
759.91	33380.09
760.09	33638.13
760.28	33634.61
760.47	33212.24
760.66	33651.16
760.85	33142.36
761.04	33558.34
761.23	33268.19
761.41	33292.19
761.60	33463.15
761.79	33192.08
761.98	32875.31
762.17	33344.78
762.36	32847.94
762.54	33155.39
762.73	32994.58
762.92	32783.56
763.11	33123.11
763.30	33288.18
763.49	33106.07
763.67	33009.16
763.86	33021.69
764.05	33081.17
764.24	32924.21
764.43	33204.86
764.61	32709.91
764.80	32652.57
764.99	33076.58
765.18	32617.02
765.37	32758.73
765.55	32797.07
765.74	32641.84
765.93	32451.87
766.12	32621.60
766.31	32525.10
766.49	32495.28
766.68	32515.44
766.87	32386.50
767.06	32259.60
767.25	32318.91
767.43	32222.41
767.62	32026.54
767.81	32237.73
768.00	31978.38
768.19	31896.05
768.37	31990.50
768.56	32005.33
768.75	32108.71
768.94	32058.90
769.12	31811.51
769.31	31756.29
769.50	31753.67
769.69	31850.67
769.88	31426.24
770.06	31970.76
770.25	31501.20
770.44	31521.93
770.63	31763.67
770.81	31608.68
771.00	31422.23
771.19	31581.23
771.38	31469.66
771.56	31665.28
771.75	31084.32
771.94	31434.11
772.13	31386.92
772.31	31189.17
772.50	31467.78
772.69	31289.11
772.88	31572.63
773.06	31075.14
773.25	31220.05
773.44	31233.65
773.62	31104.55
773.81	31125.68
774.00	30986.50
774.19	31128.14
774.37	30950.71
774.56	31206.78
774.75	30779.00
774.94	31093.90
775.12	30731.90
775.31	30915.07
775.50	30790.72
775.68	30649.00
775.87	30576.17
776.06	30453.46
776.25	30626.80
776.43	30436.42
776.62	30711.42
776.81	30325.50
776.99	30543.32
777.18	30514.49
777.37	30148.48
777.55	30379.40
777.74	30446.99
777.93	30383.99
778.12	30393.09
778.30	30183.29
778.49	30244.73
778.68	30414.71
778.86	30270.62
779.05	30365.81
779.24	30410.62
779.42	30190.91
779.61	30108.17
779.80	30160.35
779.98	30336.56
780.17	30418.32
780.36	30005.28
780.54	30320.10
780.73	29665.48
780.92	30241.94
781.10	29949.74
781.29	29853.49
781.48	29701.04
781.66	29754.61
781.85	29780.91
782.04	29670.56
782.22	29736.92
782.41	29556.37
782.60	29742.73
782.78	29696.86
782.97	29718.81
783.16	29409.32
783.34	29362.14
783.53	29531.63
783.71	29298.32
783.90	29325.19
784.09	29372.62
784.27	29251.22
784.46	29258.18
784.65	29316.84
784.83	29144.56
785.02	29107.62
785.20	29442.01
785.39	28896.59
785.58	29348.29
785.76	29179.79
785.95	29119.33
786.14	29193.06
786.32	29273.17
786.51	29155.13
786.69	29342.56
786.88	29246.55
787.07	29195.76
787.25	29216.65
787.44	29138.99
787.62	29023.24
787.81	29227.38
788.00	29139.73
788.18	28947.22
788.37	28986.21
788.55	29436.03
788.74	29055.68
788.93	29167.66
789.11	29325.11
789.30	29136.86
789.48	28932.47
789.67	29206.16
789.86	29035.04
790.04	29168.40
790.23	28998.66
790.41	28919.61
790.60	29103.85
790.78	29152.67
790.97	28794.69
791.16	29011.36
791.34	29290.79
791.53	28828.27
791.71	29224.84
791.90	28954.43
792.08	29126.29
792.27	29112.12
792.46	29065.76
792.64	29178.07
792.83	29050.35
793.01	29181.34
793.20	29101.64
793.38	29032.58
793.57	29010.95
793.75	29040.69
793.94	29199.20
794.12	29406.87
794.31	29146.12
794.50	29303.89
794.68	29470.43
794.87	29244.99
795.05	29546.05
795.24	29324.70
795.42	29189.94
795.61	29572.18
795.79	29547.93
795.98	29228.77
796.16	29422.92
796.35	29419.15
796.53	29212.64
796.72	29441.27
796.90	29409.16
797.09	29307.83
797.27	29302.25
797.46	29227.55
797.64	29408.50
797.83	29332.97
798.01	29445.53
798.20	29586.19
798.38	29413.17
798.57	29665.73
798.75	29527.12
798.94	29174.46
799.12	29864.14
799.31	29506.56
799.49	29445.53
799.68	29394.33
799.86	29302.91
800.05	29314.30
800.23	29314.95
800.42	29159.96
800.60	29490.01
800.79	29065.92
800.97	29301.68
801.16	29438.32
801.34	29051.26
801.53	29065.84
801.71	29235.57
801.90	28989.98
802.08	29342.23
802.27	29172.50
802.45	28909.86
802.64	29132.11
802.82	29281.45
803.00	28961.23
803.19	29136.37
803.37	29412.85
803.56	29113.51
803.74	29112.86
803.93	29147.18
804.11	28950.25
804.30	28824.83
804.48	29095.66
804.67	29089.27
804.85	28937.63
805.03	29200.76
805.22	28875.46
805.40	28831.06
805.59	28967.86
805.77	29022.26
805.96	28759.05
806.14	28791.66
806.32	28843.26
806.51	29164.06
806.69	28878.57
806.88	28916.01
807.06	28829.91
807.25	28836.22
807.43	28790.34
807.61	28861.04
807.80	28710.47
807.98	28903.15
808.17	28641.99
808.35	28599.80
808.53	28858.26
808.72	28601.52
808.90	28579.90
809.09	28614.79
809.27	28700.89
809.45	28338.73
809.64	28624.30
809.82	28381.08
810.01	28439.81
810.19	28485.69
810.37	28275.32
810.56	28218.06
810.74	28420.65
810.93	28105.18
811.11	28162.93
811.29	28113.61
811.48	28168.58
811.66	28161.37
811.84	28102.47
812.03	28054.30
812.21	28042.92
812.40	28142.94
812.58	28189.72
812.76	27979.51
812.95	28170.14
813.13	27746.04
813.31	27870.48
813.50	27944.78
813.68	27847.46
813.86	27970.17
814.05	28082.40
814.23	27649.87
814.42	27904.23
814.60	27767.10
814.78	27866.14
814.97	27747.27
815.15	27694.68
815.33	27827.47
815.52	27663.31
815.70	27640.29
815.88	27696.40
816.07	27416.16
816.25	27532.07
816.43	27552.39
816.62	27250.35
816.80	27437.54
816.98	27238.80
817.17	27225.37
817.35	27244.46
817.53	27237.57
817.72	27372.49
817.90	27004.60
818.08	27085.29
818.26	27146.89
818.45	27003.94
818.63	27119.12
818.81	27100.03
819.00	26879.84
819.18	27117.24
819.36	27059.57
819.55	27005.91
819.73	26910.80
819.91	27150.82
820.09	26926.28
820.28	27127.97
820.46	26847.07
820.64	27139.03
820.83	26834.94
821.01	26879.84
821.19	26728.53
821.38	26830.44
821.56	26697.40
821.74	26787.10
821.92	26594.76
822.11	26870.25
822.29	26469.59
822.47	26540.04
822.65	26623.68
822.84	26675.20
823.02	26344.17
823.20	26746.39
823.39	26399.14
823.57	26406.26
823.75	26446.98
823.93	26226.29
824.12	26388.49
824.30	26215.56
824.48	26199.75
824.66	26399.87
824.85	25857.57
825.03	26244.47
825.21	26293.22
825.39	26135.28
825.58	26223.09
825.76	26088.25
825.94	26162.15
826.12	26008.55
826.31	25896.32
826.49	26020.18
826.67	26052.46
826.85	25834.39
827.03	25907.05
827.22	25982.66
827.40	25772.95
827.58	25685.46
827.76	25802.69
827.95	25640.90
828.13	25671.12
828.31	25640.16
828.49	25756.89
828.67	25601.00
828.86	25437.57
829.04	25630.57
829.22	25455.43
829.40	25382.36
829.58	25233.51
829.77	25386.95
829.95	25401.04
830.13	25304.13
830.31	25273.00
830.49	25328.21
830.68	25344.68
830.86	25204.92
831.04	25143.73
831.22	25173.63
831.40	25091.06
831.59	25251.21
831.77	24962.85
831.95	25151.19
832.13	24847.51
832.31	25052.72
832.50	24951.63
832.68	24791.24
832.86	24874.22
833.04	25021.75
833.22	24635.84
833.40	25112.85
833.59	24759.70
833.77	24950.16
833.95	24363.13
834.13	25076.31
834.31	24727.75
834.49	24683.68
834.67	24697.11
834.86	24739.05
835.04	24631.17
835.22	24733.89
835.40	24665.57
835.58	24506.81
835.76	24536.88
835.95	24524.02
836.13	24461.59
836.31	24325.53
836.49	24525.33
836.67	24505.42
836.85	24436.28
837.03	24337.08
837.21	24367.47
837.40	24213.95
837.58	23966.07
837.76	24190.36
837.94	24113.77
838.12	24290.30
838.30	24086.82
838.48	24049.62
838.66	23978.68
838.85	23904.38
839.03	24008.34
839.21	23946.90
839.39	23902.83
839.57	24026.11
839.75	23897.58
839.93	23880.63
840.11	23857.03
840.29	23753.16
840.47	23787.24
840.66	23730.80
840.84	23625.37
841.02	23541.65
841.20	23613.74
841.38	23593.91
841.56	23556.47
841.74	23815.58
841.92	23495.85
842.10	23524.12
842.28	23589.49
842.46	23483.73
842.65	23492.17
842.83	23631.18
843.01	23703.35
843.19	23366.34
843.37	23604.64
843.55	23408.53
843.73	23496.59
843.91	23458.01
844.09	23295.56
844.27	23461.28
844.45	23176.45
844.63	23067.26
844.81	23139.43
844.99	23105.02
845.17	22959.94
845.35	23170.39
845.54	23029.74
845.72	23081.10
845.90	22958.63
846.08	23005.98
846.26	22806.51
846.44	23042.60
846.62	22672.00
846.80	22769.23
846.98	22752.36
847.16	22685.27
847.34	22807.49
847.52	22685.68
847.70	22692.48
847.88	22774.56
848.06	22607.04
848.24	22693.05
848.42	22584.26
848.60	22472.52
848.78	22660.94
848.96	22476.05
849.14	22421.65
849.32	22560.59
849.50	22303.44
849.68	22447.79
849.86	22400.44
850.04	22232.58
850.22	22211.12
850.40	22107.17
850.58	22260.85
850.76	22598.02
850.94	21928.09
851.12	22297.46
851.30	22108.81
851.48	22302.54
851.66	22068.58
851.84	22012.06
852.02	21964.06
852.20	22072.43
852.38	21796.53
852.56	21920.15
852.74	21909.17
852.92	21779.82
853.10	21720.02
853.28	21872.88
853.46	21407.91
853.64	21653.34
853.82	21517.02
854.00	21555.85
854.18	21427.08
854.36	21368.83
854.54	21493.10
854.72	21437.24
854.90	21337.38
855.07	21474.26
855.25	21434.70
855.43	21443.95
855.61	21440.76
855.79	21314.03
855.97	21461.57
856.15	21417.41
856.33	21247.84
856.51	21396.52
856.69	21189.19
856.87	21385.55
857.05	21241.45
857.23	21355.15
857.41	21116.52
857.59	21180.26
857.77	21206.31
857.94	21162.89
858.12	21287.41
858.30	21084.33
858.48	21055.08
858.66	20993.48
858.84	21148.31
859.02	20918.28
859.20	20817.27
859.38	21119.88
859.56	21009.78
859.74	20861.18
859.92	20891.33
860.09	20704.39
860.27	20798.84
860.45	20511.64
860.63	20628.78
860.81	20688.33
860.99	20573.48
861.17	20339.44
861.35	20014.23
861.53	19866.36
861.70	19791.00
861.88	20184.94
862.06	20202.80
862.24	19939.43
862.42	19935.42
862.60	20186.25
862.78	20214.52
862.96	20284.39
863.14	20119.98
863.31	20279.56
863.49	20150.13
863.67	20199.69
863.85	20168.23
864.03	20228.36
864.21	20154.55
864.39	20136.86
864.56	19929.60
864.74	20017.09
864.92	19868.66
865.10	19843.67
865.28	19883.40
865.46	20045.35
865.64	19634.70
865.81	19869.88
865.99	19610.28
866.17	19846.13
866.35	19707.36
866.53	19672.30
866.71	19659.19
866.88	19720.63
867.06	19500.35
867.24	19585.79
867.42	19435.47
867.60	19434.81
867.78	19306.37
867.95	19444.32
868.13	19195.77
868.31	19326.35
868.49	19274.09
868.67	19174.56
868.84	19151.13
869.02	19247.06
869.20	18863.10
869.38	19116.48
869.56	18994.42
869.73	18888.91
869.91	19010.64
870.09	18970.83
870.27	18879.00
870.45	18901.85
870.62	18794.29
870.80	19023.01
870.98	18888.91
871.16	18864.91
871.34	18828.62
871.51	18917.33
871.69	18677.72
871.87	18814.28
872.05	18722.86
872.23	18678.79
872.40	18506.59
872.58	18594.00
872.76	18420.66
872.94	18391.74
873.11	18467.60
873.29	18335.96
873.47	18459.90
873.65	18374.62
873.83	18333.09
874.00	18362.58
874.18	18422.30
874.36	18331.94
874.54	18323.67
874.71	18197.10
874.89	18092.25
875.07	18136.98
875.25	18084.79
875.42	18124.11
875.60	18055.30
875.78	18250.92
875.96	17995.58
876.13	18220.78
876.31	17954.13
876.49	17915.71
876.66	17846.25
876.84	18091.26
877.02	17922.59
877.20	17924.64
877.37	17945.94
877.55	17891.46
877.73	17835.27
877.91	17761.30
878.08	17897.44
878.26	17779.15
878.44	17794.31
878.61	17787.59
878.79	17665.12
878.97	17684.87
879.15	17836.09
879.32	17788.57
879.50	17717.14
879.68	17837.97
879.85	17662.91
880.03	17784.23
880.21	17616.87
880.38	17810.86
880.56	17639.73
880.74	17823.72
880.92	17643.82
881.09	17740.24
881.27	17718.37
881.45	17706.57
881.62	17658.32
881.80	17596.15
881.98	17538.39
882.15	17641.61
882.33	17492.03
882.51	17504.97
882.68	17371.69
882.86	17590.25
883.04	17351.05
883.21	17378.33
883.39	17524.88
883.57	17426.99
883.74	17408.55
883.92	17403.07
884.10	17413.71
884.27	17435.42
884.45	17313.36
884.63	17443.86
884.80	17406.67
884.98	17425.18
885.16	17373.49
885.33	17375.46
885.51	17377.75
885.69	17364.48
885.86	17325.24
886.04	17390.04
886.21	17193.84
886.39	17396.76
886.57	17116.02
886.74	17401.26
886.92	17298.86
887.10	17339.00
887.27	17334.34
887.45	17320.65
887.62	17301.81
887.80	17315.08
887.98	17492.27
888.15	17429.36
888.33	17358.83
888.51	17462.62
888.68	17384.06
888.86	17480.40
889.03	17328.36
889.21	17401.10
889.39	17466.31
889.56	17439.85
889.74	17397.49
889.91	17432.64
890.09	17332.12
890.27	17399.46
890.44	17356.86
890.62	17402.33
890.79	17386.03
890.97	17484.25
891.14	17384.88
891.32	17345.31
891.50	17317.13
891.67	17451.23
891.85	17328.85
892.02	17288.05
892.20	17450.33
892.38	17377.92
892.55	17294.44
892.73	17366.45
892.90	17257.90
893.08	17267.33
893.25	17229.15
893.43	17412.40
893.60	17223.74
893.78	17379.64
893.96	17282.97
894.13	17362.68
894.31	17510.54
894.48	17348.02
894.66	17383.49
894.83	17406.83
895.01	17374.56
895.18	17393.23
895.36	17302.06
895.53	17414.12
895.71	17248.40
895.89	17313.77
896.06	17190.08
896.24	17304.27
896.41	17189.50
896.59	17250.78
896.76	17091.61
896.94	17252.01
897.11	17198.19
897.29	17281.74
897.46	17077.44
897.64	17162.55
897.81	17102.67
897.99	16969.63
898.16	17224.89
898.34	17104.64
898.51	17046.15
898.69	17007.32
898.86	17039.59
899.04	17101.60
899.21	16938.75
899.39	17051.96
899.56	16911.63
899.74	17081.45
899.91	16927.44
900.09	16896.40
900.26	16936.46
900.44	16809.32
900.61	16854.95
900.79	17029.84
900.96	16837.09
901.14	16851.59
901.31	16750.50
901.49	16765.08
901.66	16785.97
901.84	16778.60
902.01	16706.26
902.19	16736.82
902.36	16617.22
902.54	16666.21
902.71	16609.85
902.88	16674.81
903.06	16444.45
903.23	16714.13
903.41	16529.97
903.58	16450.27
903.76	16382.93
903.93	16462.23
904.11	16577.73
904.28	16472.22
904.45	16408.16
904.63	16403.25
904.80	16197.71
904.98	16272.59
905.15	16116.86
905.33	16240.97
905.50	16165.27
905.68	16223.44
905.85	16109.81
906.02	16086.55
906.20	16191.24
906.37	15988.66
906.55	15927.63
906.72	16103.83
906.90	15890.35
907.07	15836.45
907.24	15842.76
907.42	15768.95
907.59	15750.93
907.77	15684.57
907.94	15643.70
908.11	15688.42
908.29	15640.75
908.46	15581.44
908.64	15487.15
908.81	15599.71
908.98	15364.52
909.16	15454.14
909.33	15351.57
909.51	15314.14
909.68	15235.33
909.85	15245.82
910.03	15269.74
910.20	15133.42
910.37	15158.57
910.55	15096.72
910.72	15056.67
910.90	14964.84
911.07	14911.75
911.24	14842.04
911.42	14983.43
911.59	14777.57
911.76	14830.65
911.94	14706.14
912.11	14684.35
912.29	14696.72
912.46	14630.61
912.63	14626.18
912.81	14468.00
912.98	14579.00
913.15	14428.27
913.33	14537.87
913.50	14508.38
913.67	14370.92
913.85	14364.13
914.02	14369.70
914.19	14329.64
914.37	14278.93
914.54	14347.33
914.71	14245.75
914.89	14234.69
915.06	14194.39
915.23	14114.85
915.41	14128.85
915.58	14022.93
915.75	14000.32
915.93	13959.77
916.10	13891.70
916.27	13875.56
916.45	13863.11
916.62	13744.98
916.79	13839.35
916.97	13689.28
917.14	13692.80
917.31	13618.50
917.49	13667.00
917.66	13693.78
917.83	13589.26
918.00	13591.14
918.18	13525.28
918.35	13433.94
918.52	13539.37
918.70	13366.35
918.87	13378.89
919.04	13337.03
919.21	13330.80
919.39	13225.70
919.56	13267.40
919.73	13107.33
919.91	13197.11
920.08	13132.15
920.25	13029.01
920.42	13178.68
920.60	12993.79
920.77	12927.27
920.94	13009.93
921.11	12798.00
921.29	12872.38
921.46	12706.74
921.63	12823.97
921.81	12659.07
921.98	12673.57
922.15	12685.61
922.32	12686.43
922.50	12599.43
922.67	12627.12
922.84	12534.22
923.01	12468.85
923.19	12464.59
923.36	12500.97
923.53	12220.31
923.70	12364.73
923.87	12296.91
924.05	12318.12
924.22	12172.88
924.39	12218.92
924.56	12097.76
924.74	12129.55
924.91	12154.94
925.08	12073.68
925.25	12071.96
925.43	12076.71
925.60	11947.19
925.77	12110.46
925.94	11964.32
926.11	11943.43
926.29	11840.13
926.46	11915.08
926.63	11891.16
926.80	11847.74
926.97	11721.92
927.15	11784.01
927.32	11632.63
927.49	11624.84
927.66	11572.58
927.83	11630.99
928.01	11495.99
928.18	11507.95
928.35	11378.19
928.52	11463.79
928.69	11248.84
928.87	11311.18
929.04	11296.68
929.21	11320.43
929.38	11221.39
929.55	11234.83
929.72	11168.97
929.90	11157.01
930.07	11119.16
930.24	11062.06
930.41	11012.01
930.58	11004.23
930.75	10999.89
930.93	10972.53
931.10	10940.25
931.27	10856.45
931.44	10873.49
931.61	10782.97
931.78	10830.89
931.95	10803.36
932.13	10699.90
932.30	10774.04
932.47	10623.80
932.64	10705.31
932.81	10694.66
932.98	10646.49
933.15	10646.16
933.33	10518.45
933.50	10610.53
933.67	10477.90
933.84	10490.35
934.01	10534.01
934.18	10481.83
934.35	10445.21
934.52	10423.59
934.70	10438.25
934.87	10386.72
935.04	10322.83
935.21	10293.83
935.38	10277.85
935.55	10222.31
935.72	10285.72
935.89	10188.23
936.06	10211.01
936.24	10104.02
936.41	10204.95
936.58	10105.09
936.75	10137.36
936.92	10087.31
937.09	10105.25
937.26	10002.20
937.43	10033.57
937.60	10015.96
937.77	9950.67
937.94	9964.27
938.12	9957.80
938.29	9871.37
938.46	9877.76
938.63	9763.24
938.80	9819.93
938.97	9761.36
939.14	9761.68
939.31	9703.52
939.48	9721.87
939.65	9584.49
939.82	9625.45
939.99	9583.18
940.16	9570.08
940.33	9539.19
940.50	9499.05
940.67	9487.99
940.85	9536.00
941.02	9473.58
941.19	9473.90
941.36	9439.83
941.53	9441.05
941.70	9399.36
941.87	9323.83
942.04	9325.96
942.21	9316.62
942.38	9271.32
942.55	9227.16
942.72	9260.01
942.89	9193.17
943.06	9146.47
943.23	9130.66
943.40	9111.09
943.57	9133.86
943.74	9088.15
943.91	9067.42
944.08	9057.35
944.25	9077.99
944.42	8965.35
944.59	8937.42
944.76	8977.07
944.93	8940.61
945.10	8942.41
945.27	8926.60
945.44	8826.91
945.61	8849.03
945.78	8802.42
945.95	8812.49
946.12	8744.42
946.29	8813.15
946.46	8729.84
946.63	8702.88
946.80	8668.56
946.97	8645.62
947.14	8576.07
947.31	8652.26
947.48	8601.22
947.65	8584.84
947.82	8571.49
947.99	8570.50
948.16	8506.77
948.33	8599.34
948.50	8442.38
948.67	8468.76
948.84	8456.72
949.01	8430.42
949.18	8424.36
949.35	8450.90
949.52	8313.28
949.68	8344.90
949.85	8337.12
950.02	8333.84
950.19	8286.00
950.36	8249.96
950.53	8236.85
950.70	8222.51
950.87	8205.97
951.04	8233.08
951.21	8164.84
951.38	8133.47
951.55	8154.19
951.72	8132.32
951.89	8096.44
952.06	8137.48
952.23	8060.97
952.39	8053.43
952.56	7972.91
952.73	7990.85
952.90	7925.15
953.07	7987.32
953.24	7917.94
953.41	7932.19
953.58	7851.99
953.75	7927.36
953.92	7858.38
954.09	7815.05
954.25	7783.43
954.42	7788.10
954.59	7697.17
954.76	7756.72
954.93	7683.00
955.10	7702.25
955.27	7638.19
955.44	7678.82
955.61	7637.45
955.77	7705.77
955.94	7667.51
956.11	7634.42
956.28	7639.50
956.45	7628.27
956.62	7599.60
956.79	7605.99
956.96	7572.57
957.12	7579.78
957.29	7569.95
957.46	7555.94
957.63	7533.17
957.80	7498.27
957.97	7463.04
958.14	7514.73
958.30	7404.23
958.47	7423.64
958.64	7363.27
958.81	7414.47
958.98	7333.61
959.15	7306.09
959.32	7346.23
959.48	7288.72
959.65	7217.37
959.82	7266.60
959.99	7187.31
960.16	7229.74
960.33	7245.80
960.49	7191.73
960.66	7166.42
960.83	7160.03
961.00	7148.07
961.17	7139.63
961.33	7096.54
961.50	7098.67
961.67	7080.57
961.84	7095.56
962.01	7026.99
962.18	7108.50
962.34	7006.76
962.51	7037.07
962.68	6981.20
962.85	7056.15
963.02	6964.81
963.18	7012.57
963.35	6937.62
963.52	6940.32
963.69	6922.95
963.86	6903.54
964.02	6856.93
964.19	6917.06
964.36	6863.40
964.53	6845.38
964.69	6787.21
964.86	6822.28
965.03	6755.76
965.20	6813.10
965.37	6721.52
965.53	6730.94
965.70	6674.33
965.87	6700.54
966.04	6644.10
966.20	6646.97
966.37	6645.25
966.54	6593.23
966.71	6658.19
966.87	6605.03
967.04	6583.24
967.21	6594.54
967.38	6565.13
967.54	6565.79
967.71	6569.72
967.88	6539.25
968.05	6530.56
968.21	6491.32
968.38	6441.84
968.55	6468.30
968.72	6431.44
968.88	6397.69
969.05	6440.29
969.22	6410.06
969.39	6392.61
969.55	6407.36
969.72	6328.39
969.89	6332.65
970.05	6374.34
970.22	6336.33
970.39	6331.09
970.56	6337.15
970.72	6283.82
970.89	6297.83
971.06	6262.93
971.22	6263.43
971.39	6265.72
971.56	6281.53
971.73	6200.43
971.89	6254.74
972.06	6189.37
972.23	6221.40
972.39	6159.39
972.56	6179.54
972.73	6113.60
972.89	6149.72
973.06	6114.09
973.23	6125.88
973.39	6102.86
973.56	6111.79
973.73	6078.62
973.89	6097.62
974.06	6050.27
974.23	6047.57
974.39	6018.98
974.56	6004.81
974.73	5983.84
974.89	5989.16
975.06	5958.44
975.23	6009.15
975.39	5925.27
975.56	5965.32
975.73	5922.81
975.89	5916.34
976.06	5908.47
976.23	5859.32
976.39	5863.25
976.56	5874.23
976.73	5863.99
976.89	5856.21
977.06	5815.41
977.23	5821.31
977.39	5788.30
977.56	5806.73
977.72	5750.94
977.89	5801.40
978.06	5767.74
978.22	5761.76
978.39	5738.41
978.56	5745.13
978.72	5710.72
978.89	5718.34
979.05	5697.12
979.22	5692.04
979.39	5666.16
979.55	5662.96
979.72	5633.06
979.88	5642.15
980.05	5600.29
980.22	5643.22
980.38	5602.18
980.55	5613.40
980.71	5595.87
980.88	5591.36
981.05	5575.14
981.21	5574.41
981.38	5554.50
981.54	5548.19
981.71	5483.97
981.88	5523.45
982.04	5510.10
982.21	5488.72
982.37	5468.32
982.54	5489.13
982.70	5454.81
982.87	5471.52
983.04	5389.52
983.20	5477.33
983.37	5421.22
983.53	5439.00
983.70	5395.09
983.86	5385.83
984.03	5394.02
984.20	5379.77
984.36	5376.16
984.53	5379.60
984.69	5340.69
984.86	5333.73
985.02	5318.98
985.19	5323.00
985.35	5290.64
985.52	5301.37
985.68	5300.88
985.85	5285.89
986.02	5266.31
986.18	5258.53
986.35	5240.34
986.51	5284.99
986.68	5237.72
986.84	5229.77
987.01	5192.01
987.17	5239.69
987.34	5216.42
987.50	5177.10
987.67	5159.00
987.83	5163.09
988.00	5140.73
988.16	5158.26
988.33	5129.83
988.49	5145.32
988.66	5100.43
988.82	5115.83
988.99	5079.13
989.15	5079.86
989.32	5048.82
989.48	5067.99
989.65	5042.10
989.81	5043.82
989.98	4993.93
990.14	5022.27
990.31	5005.40
990.47	4985.82
990.64	4991.88
990.80	4988.69
990.97	4952.73
991.13	4989.51
991.30	4959.28
991.46	4934.05
991.63	4921.68
991.79	4932.90
991.95	4892.84
992.12	4928.72
992.28	4889.89
992.45	4882.93
992.61	4897.10
992.78	4869.82
992.94	4852.87
993.11	4885.80
993.27	4843.94
993.44	4862.62
993.60	4847.95
993.76	4824.85
993.93	4844.43
994.09	4842.63
994.26	4815.10
994.42	4794.38
994.59	4769.96
994.75	4804.62
994.91	4790.53
995.08	4766.36
995.24	4737.69
995.41	4767.84
995.57	4724.01
995.74	4707.22
995.90	4698.45
996.06	4721.55
996.23	4683.46
996.39	4701.07
996.56	4681.41
996.72	4689.68
996.88	4689.85
997.05	4692.39
997.21	4654.30
997.38	4664.04
997.54	4619.40
997.70	4647.82
997.87	4639.96
998.03	4638.49
998.20	4608.01
998.36	4622.35
998.52	4584.58
998.69	4605.80
998.85	4589.33
999.02	4573.28
999.18	4571.31
999.34	4596.62
999.51	4564.92
999.67	4584.66
999.83	4543.87
1000.00	4548.62
1000.16	4501.11
1000.33	4515.53
1000.49	4497.42
1000.65	4519.46
1000.82	4508.15
1000.98	4519.21
1001.14	4477.27
1001.31	4494.31
1001.47	4490.29
1001.63	4486.61
1001.80	4445.89
1001.96	4459.41
1002.12	4428.86
1002.29	4448.43
1002.45	4429.26
1002.61	4433.12
1002.78	4401.08
1002.94	4401.08
1003.10	4404.28
1003.27	4402.40
1003.43	4365.78
1003.59	4396.33
1003.76	4383.80
1003.92	4380.85
1004.08	4366.68
1004.25	4387.40
1004.41	4364.47
1004.57	4350.21
1004.74	4320.80
1004.90	4370.28
1005.06	4332.60
1005.23	4319.58
1005.39	4319.17
1005.55	4323.26
1005.71	4315.89
1005.88	4308.52
1006.04	4306.30
1006.20	4328.91
1006.37	4252.73
1006.53	4257.48
1006.69	4280.58
1006.85	4279.11
1007.02	4236.10
1007.18	4248.06
1007.34	4253.96
1007.51	4236.02
1007.67	4229.79
1007.83	4235.04
1007.99	4204.40
1008.16	4210.21
1008.32	4185.15
1008.48	4216.11
1008.64	4211.03
1008.81	4204.97
1008.97	4155.25
1009.13	4194.08
1009.29	4168.93
1009.46	4159.34
1009.62	4176.96
1009.78	4149.43
1009.95	4158.93
1010.11	4138.21
1010.27	4108.55
1010.43	4133.29
1010.59	4131.08
1010.76	4115.35
1010.92	4100.93
1011.08	4112.24
1011.24	4095.04
1011.41	4125.02
1011.57	4079.72
1011.73	4102.74
1011.89	4056.70
1012.06	4097.49
1012.22	4065.63
1012.38	4082.99
1012.54	4049.33
1012.70	4074.88
1012.87	4048.42
1013.03	4048.59
1013.19	4027.86
1013.35	4059.89
1013.51	3991.49
1013.68	4044.25
1013.84	4006.40
1014.00	4018.52
1014.16	3992.31
1014.32	3984.94
1014.49	3964.62
1014.65	4019.43
1014.81	3959.62
1014.97	3969.62
1015.13	3974.94
1015.30	3966.51
1015.46	3949.47
1015.62	3969.05
1015.78	3952.50
1015.94	3941.85
1016.10	3939.80
1016.27	3938.57
1016.43	3935.87
1016.59	3940.54
1016.75	3945.53
1016.91	3926.04
1017.07	3879.26
1017.24	3916.21
1017.40	3894.34
1017.56	3907.36
1017.72	3869.68
1017.88	3886.88
1018.04	3881.15
1018.21	3869.92
1018.37	3883.69
1018.53	3878.12
1018.69	3851.90
1018.85	3867.22
1019.01	3844.61
1019.17	3842.64
1019.34	3833.72
1019.50	3842.07
1019.66	3825.20
1019.82	3838.06
1019.98	3812.91
1020.14	3850.26
1020.30	3838.96
1020.46	3831.34
1020.63	3816.43
1020.79	3804.14
1020.95	3816.84
1021.11	3804.06
1021.27	3781.70
1021.43	3791.61
1021.59	3821.51
1021.75	3775.55
1021.91	3753.76
1022.07	3774.57
1022.24	3767.93
1022.40	3767.03
1022.56	3739.35
1022.72	3779.81
1022.88	3728.53
1023.04	3748.19
1023.20	3735.09
1023.36	3718.37
1023.52	3733.04
1023.68	3752.70
1023.84	3697.89
1024.01	3733.45
1024.17	3713.13
1024.33	3705.59
1024.49	3724.44
1024.65	3704.78
1024.81	3698.14
1024.97	3707.81
1025.13	3692.65
1025.29	3705.43
1025.45	3673.89
1025.61	3703.96
1025.77	3649.56
1025.93	3704.69
1026.09	3668.16
1026.25	3672.66
1026.41	3667.50
1026.57	3674.55
1026.73	3675.69
1026.90	3677.82
1027.06	3659.23
1027.22	3661.03
1027.38	3669.47
1027.54	3669.88
1027.70	3670.37
1027.86	3659.15
1028.02	3644.07
1028.18	3632.77
1028.34	3639.57
1028.50	3646.61
1028.66	3617.70
1028.82	3657.26
1028.98	3612.78
1029.14	3612.29
1029.30	3622.61
1029.46	3631.62
1029.62	3611.22
1029.78	3606.06
1029.94	3602.62
1030.10	3590.83
1030.26	3582.88
1030.42	3603.93
1030.58	3582.72
1030.74	3595.17
1030.90	3568.05
1031.06	3595.41
1031.22	3593.78
1031.38	3567.89
1031.54	3569.28
1031.70	3565.35
1031.86	3580.26
1032.02	3561.42
1032.18	3540.86
1032.34	3571.66
1032.50	3540.28
1032.66	3569.36
1032.82	3534.22
1032.98	3545.28
1033.14	3568.30
1033.30	3564.78
1033.45	3523.98
1033.61	3565.02
1033.77	3547.16
1033.93	3534.47
1034.09	3521.44
1034.25	3555.60
1034.41	3513.99
1034.57	3539.95
1034.73	3514.07
1034.89	3500.22
1035.05	3515.54
1035.21	3510.96
1035.37	3486.54
1035.53	3512.35
1035.69	3503.09
1035.85	3528.65
1036.01	3516.77
1036.16	3512.68
1036.32	3485.23
1036.48	3492.28
1036.64	3489.33
1036.80	3505.39
1036.96	3492.03
1037.12	3477.12
1037.28	3486.05
1037.44	3481.55
1037.60	3470.57
1037.76	3460.49
1037.91	3458.28
1038.07	3500.72
1038.23	3476.71
1038.39	3469.42
1038.55	3468.44
1038.71	3469.42
1038.87	3449.03
1039.03	3477.37
1039.19	3464.02
1039.35	3455.66
1039.50	3455.01
1039.66	3472.95
1039.82	3458.45
1039.98	3459.84
1040.14	3438.54
1040.30	3439.60
1040.46	3435.59
1040.62	3418.88
1040.77	3418.14
1040.93	3448.12
1041.09	3428.46
1041.25	3417.16
1041.41	3436.98
1041.57	3436.82
1041.73	3436.82
1041.88	3436.82

