SpectraSuite Data File
++++++++++++++++++++++++++++++++++++
Date: Tue Sep 20 12:04:19 EDT 2022
User: Laboratoire
Dark Spectrum Present: No
Reference Spectrum Present: No
Number of Sampled Component Spectra: 1
Spectrometers: FLMT00174
Integration Time (usec): 15000 (FLMT00174)
Spectra Averaged: 25 (FLMT00174)
Boxcar Smoothing: 0 (FLMT00174)
Correct for Electrical Dark: No (FLMT00174)
Strobe/Lamp Enabled: No (FLMT00174)
Correct for Detector Non-linearity: No (FLMT00174)
Correct for Stray Light: No (FLMT00174)
Number of Pixels in Processed Spectrum: 3648
>>>>>Begin Processed Spectral Data<<<<<
345.74	3154.12
345.96	3154.12
346.18	3154.12
346.39	3153.71
346.61	3226.21
346.83	3198.93
347.05	3215.56
347.27	3205.81
347.49	3217.60
347.71	3210.56
347.93	3219.32
348.15	3235.71
348.36	3215.07
348.58	3228.25
348.80	3226.70
349.02	3210.48
349.24	3214.25
349.46	3316.15
349.68	3341.71
349.90	3344.09
350.11	3337.21
350.33	3338.76
350.55	3344.82
350.77	3343.27
350.99	3331.23
351.21	3356.95
351.43	3315.33
351.65	3350.07
351.86	3326.80
352.08	3346.30
352.30	3310.83
352.52	3363.50
352.74	3326.97
352.96	3331.06
353.18	3354.33
353.39	3353.34
353.61	3336.06
353.83	3349.82
354.05	3378.74
354.27	3347.04
354.49	3349.99
354.70	3365.80
354.92	3331.23
355.14	3339.66
355.36	3331.23
355.58	3357.03
355.80	3329.83
356.02	3372.59
356.23	3334.01
356.45	3346.87
356.67	3350.64
356.89	3364.40
357.11	3344.01
357.33	3363.91
357.54	3330.32
357.76	3335.16
357.98	3342.61
358.20	3339.83
358.42	3344.17
358.63	3339.75
358.85	3334.09
359.07	3353.92
359.29	3313.94
359.51	3345.89
359.73	3329.10
359.94	3355.06
360.16	3331.96
360.38	3349.25
360.60	3332.29
360.82	3352.85
361.03	3344.99
361.25	3369.65
361.47	3356.54
361.69	3360.55
361.91	3348.76
362.12	3361.45
362.34	3348.02
362.56	3376.85
362.78	3342.12
363.00	3379.48
363.21	3343.60
363.43	3366.94
363.65	3324.43
363.87	3358.42
364.09	3361.86
364.30	3331.47
364.52	3361.70
364.74	3363.26
364.96	3333.11
365.17	3351.13
365.39	3353.26
365.61	3353.34
365.83	3354.57
366.05	3355.72
366.26	3341.38
366.48	3353.59
366.70	3370.06
366.92	3356.05
367.13	3353.51
367.35	3360.88
367.57	3370.96
367.79	3369.32
368.01	3348.51
368.22	3389.72
368.44	3357.19
368.66	3365.30
368.88	3369.65
369.09	3356.38
369.31	3361.78
369.53	3352.69
369.75	3358.50
369.96	3363.34
370.18	3363.58
370.40	3377.43
370.62	3360.63
370.83	3370.79
371.05	3399.79
371.27	3381.11
371.49	3350.89
371.70	3379.89
371.92	3361.37
372.14	3378.49
372.36	3356.21
372.57	3393.32
372.79	3367.60
373.01	3375.46
373.22	3363.42
373.44	3376.77
373.66	3366.78
373.88	3378.33
374.09	3357.77
374.31	3376.45
374.53	3354.90
374.75	3392.99
374.96	3397.58
375.18	3407.90
375.40	3385.46
375.61	3384.72
375.83	3360.88
376.05	3395.37
376.27	3402.50
376.48	3372.35
376.70	3385.29
376.92	3382.18
377.13	3374.15
377.35	3383.41
377.57	3383.98
377.79	3390.54
378.00	3391.19
378.22	3409.46
378.44	3388.81
378.65	3403.72
378.87	3396.84
379.09	3406.35
379.30	3399.79
379.52	3412.24
379.74	3396.35
379.96	3399.87
380.17	3377.51
380.39	3388.57
380.61	3406.67
380.82	3398.07
381.04	3401.84
381.26	3407.49
381.47	3393.32
381.69	3442.06
381.91	3416.83
382.12	3420.03
382.34	3430.92
382.56	3416.67
382.77	3400.69
382.99	3432.81
383.21	3420.52
383.42	3453.61
383.64	3434.20
383.86	3446.32
384.07	3445.50
384.29	3426.17
384.51	3437.64
384.72	3438.70
384.94	3427.15
385.16	3440.34
385.37	3440.51
385.59	3440.18
385.81	3438.95
386.02	3444.85
386.24	3469.75
386.46	3447.22
386.67	3458.28
386.89	3472.37
387.11	3490.56
387.32	3464.34
387.54	3466.64
387.76	3467.21
387.97	3511.61
388.19	3484.17
388.40	3471.80
388.62	3482.61
388.84	3493.26
389.05	3493.02
389.27	3485.48
389.49	3521.28
389.70	3486.13
389.92	3514.23
390.14	3478.60
390.35	3504.40
390.57	3521.11
390.78	3495.23
391.00	3498.50
391.22	3522.10
391.43	3509.56
391.65	3530.04
391.86	3547.49
392.08	3538.40
392.30	3547.08
392.51	3554.86
392.73	3558.63
392.95	3556.58
393.16	3543.15
393.38	3563.14
393.59	3557.98
393.81	3601.07
394.03	3562.40
394.24	3571.99
394.46	3566.41
394.67	3597.63
394.89	3587.63
395.11	3601.89
395.32	3622.12
395.54	3612.86
395.75	3601.31
395.97	3611.31
396.19	3596.81
396.40	3638.59
396.62	3630.31
396.83	3629.16
397.05	3628.84
397.26	3653.41
397.48	3649.56
397.70	3677.99
397.91	3661.69
398.13	3669.22
398.34	3680.36
398.56	3697.08
398.78	3677.25
398.99	3726.40
399.21	3674.47
399.42	3735.00
399.64	3699.70
399.85	3700.02
400.07	3727.71
400.29	3733.86
400.50	3732.96
400.72	3734.35
400.93	3738.94
401.15	3744.59
401.36	3764.33
401.58	3797.34
401.79	3778.67
402.01	3803.32
402.23	3791.94
402.44	3809.88
402.66	3811.60
402.87	3809.06
403.09	3805.37
403.30	3813.65
403.52	3808.73
403.73	3820.53
403.95	3839.37
404.16	3842.89
404.38	3853.29
404.60	3862.14
404.81	3872.05
405.03	3875.00
405.24	3900.97
405.46	3888.60
405.67	3911.78
405.89	3912.28
406.10	3921.45
406.32	3933.49
406.53	3939.47
406.75	3965.36
406.96	3951.92
407.18	3943.16
407.39	3946.44
407.61	3973.80
407.82	3960.03
408.04	4001.98
408.25	3996.82
408.47	4013.61
408.68	4034.01
408.90	4019.18
409.12	4043.84
409.33	4056.29
409.55	4045.15
409.76	4070.46
409.98	4049.74
410.19	4075.29
410.41	4097.33
410.62	4096.27
410.84	4087.50
411.05	4105.36
411.27	4140.67
411.48	4150.33
411.70	4161.55
411.91	4181.54
412.12	4158.28
412.34	4161.23
412.55	4163.60
412.77	4171.30
412.98	4207.92
413.20	4198.01
413.41	4217.59
413.63	4226.43
413.84	4253.14
414.06	4284.19
414.27	4261.82
414.49	4298.03
414.70	4293.36
414.92	4287.96
415.13	4301.72
415.35	4312.20
415.56	4345.87
415.78	4337.60
415.99	4362.01
416.21	4363.89
416.42	4383.47
416.63	4420.09
416.85	4405.67
417.06	4422.30
417.28	4394.04
417.49	4469.57
417.71	4433.12
417.92	4455.40
418.14	4479.89
418.35	4491.93
418.57	4514.62
418.78	4537.40
418.99	4505.20
419.21	4548.29
419.42	4545.84
419.64	4545.75
419.85	4582.62
420.07	4634.80
420.28	4605.06
420.50	4608.26
420.71	4636.60
420.92	4639.88
421.14	4685.59
421.35	4674.37
421.57	4682.80
421.78	4709.84
422.00	4713.28
422.21	4741.13
422.42	4736.71
422.64	4754.32
422.85	4773.90
423.07	4835.17
423.28	4805.27
423.50	4832.39
423.71	4850.90
423.92	4886.21
424.14	4884.90
424.35	4902.10
424.57	4941.09
424.78	4931.67
424.99	4958.71
425.21	4980.25
425.42	4986.56
425.64	4994.50
425.85	5012.94
426.06	5008.92
426.28	5031.45
426.49	5079.45
426.71	5101.65
426.92	5072.57
427.13	5129.26
427.35	5177.18
427.56	5175.14
427.78	5179.39
427.99	5208.39
428.20	5254.10
428.42	5288.51
428.63	5294.24
428.84	5245.18
429.06	5298.42
429.27	5310.46
429.49	5331.52
429.70	5410.82
429.91	5369.61
430.13	5414.99
430.34	5413.27
430.56	5446.20
430.77	5476.68
430.98	5466.03
431.20	5525.09
431.41	5574.41
431.62	5573.26
431.84	5569.33
432.05	5615.37
432.26	5608.16
432.48	5598.00
432.69	5694.25
432.91	5669.60
433.12	5735.13
433.33	5712.52
433.55	5848.59
433.76	5822.54
433.97	5781.83
434.19	5810.82
434.40	5900.61
434.61	5905.85
434.83	5916.75
435.04	5897.82
435.25	5981.13
435.47	5986.38
435.68	5936.82
435.89	6051.26
436.11	6036.67
436.32	6092.71
436.53	6093.44
436.75	6098.03
436.96	6140.63
437.17	6095.57
437.39	6153.82
437.60	6194.86
437.81	6236.80
438.03	6260.64
438.24	6266.37
438.45	6358.62
438.67	6288.41
438.88	6365.66
439.09	6434.31
439.31	6413.09
439.52	6462.65
439.73	6465.85
439.94	6405.96
440.16	6498.45
440.37	6480.59
440.58	6579.88
440.80	6596.10
441.01	6545.55
441.22	6742.16
441.44	6686.29
441.65	6654.83
441.86	6700.79
442.08	6759.69
442.29	6758.46
442.50	6794.18
442.71	6779.92
442.93	6879.62
443.14	6857.34
443.35	6926.31
443.57	6860.04
443.78	6994.22
443.99	7037.97
444.20	6930.16
444.42	7067.05
444.63	7068.20
444.84	7091.13
445.06	7181.82
445.27	7115.71
445.48	7135.45
445.69	7199.76
445.91	7212.86
446.12	7181.08
446.33	7269.14
446.54	7345.08
446.76	7281.43
446.97	7354.75
447.18	7350.90
447.39	7412.58
447.61	7451.58
447.82	7476.64
448.03	7436.17
448.25	7558.40
448.46	7599.85
448.67	7628.68
448.88	7567.33
449.10	7716.01
449.31	7711.09
449.52	7710.44
449.73	7768.11
449.95	7879.27
450.16	7804.65
450.37	7929.82
450.58	8090.30
450.79	7887.87
451.01	8008.30
451.22	7968.56
451.43	8013.37
451.64	8120.03
451.86	8121.67
452.07	8141.17
452.28	8238.24
452.49	8312.71
452.71	8212.35
452.92	8239.22
453.13	8340.80
453.34	8360.14
453.55	8458.03
453.77	8546.75
453.98	8531.02
454.19	8450.00
454.40	8570.18
454.62	8662.66
454.83	8556.09
455.04	8761.54
455.25	8610.97
455.46	8960.76
455.68	8805.61
455.89	8830.35
456.10	8857.55
456.31	8907.68
456.52	8967.40
456.74	8939.14
456.95	9204.96
457.16	9084.46
457.37	9228.72
457.58	9202.75
457.80	9201.03
458.01	9208.49
458.22	9591.13
458.43	9398.37
458.64	9472.27
458.86	9372.32
459.07	9487.83
459.28	9493.32
459.49	9667.64
459.70	9850.73
459.91	9799.04
460.13	9798.47
460.34	9882.35
460.55	9828.45
460.76	10047.01
460.97	9965.58
461.19	10012.85
461.40	10310.13
461.61	10192.25
461.82	10232.06
462.03	10315.62
462.24	10311.85
462.46	10333.48
462.67	10351.01
462.88	10516.16
463.09	10445.38
463.30	10661.40
463.51	10544.99
463.72	10782.31
463.94	10852.84
464.15	10814.67
464.36	10752.82
464.57	11076.73
464.78	11080.90
464.99	11150.12
465.20	11044.70
465.42	11334.93
465.63	11328.38
465.84	11301.59
466.05	11460.27
466.26	11560.13
466.47	11649.17
466.68	11593.55
466.90	11804.98
467.11	11738.30
467.32	11914.75
467.53	12044.68
467.74	11874.61
467.95	12003.80
468.16	12237.02
468.37	12294.78
468.59	12307.55
468.80	12530.13
469.01	12349.42
469.22	12672.75
469.43	12880.25
469.64	12717.89
469.85	12930.96
470.06	12977.16
470.28	13145.83
470.49	12896.30
470.70	13179.74
470.91	13462.45
471.12	13275.18
471.33	13623.17
471.54	13532.24
471.75	13602.77
471.96	13962.48
472.17	13864.58
472.39	14229.29
472.60	14001.80
472.81	14368.38
473.02	14249.68
473.23	14505.19
473.44	14605.62
473.65	14555.73
473.86	14745.38
474.07	14797.48
474.28	14912.65
474.49	15280.96
474.71	15211.25
474.92	15487.72
475.13	15387.21
475.34	15490.59
475.55	15582.67
475.76	15675.40
475.97	16051.24
476.18	16060.99
476.39	16333.53
476.60	16512.03
476.81	16516.21
477.02	16722.73
477.23	16787.45
477.44	16744.85
477.65	17015.43
477.87	17217.93
478.08	17358.58
478.29	17374.64
478.50	17822.73
478.71	17680.69
478.92	17897.53
479.13	17969.37
479.34	18124.93
479.55	18260.67
479.76	18254.69
479.97	18454.00
480.18	18896.44
480.39	18575.57
480.60	19074.45
480.81	19174.15
481.02	19260.41
481.23	19317.67
481.44	19696.79
481.65	19844.08
481.86	20179.37
482.07	19761.34
482.28	20676.37
482.49	20406.21
482.71	20512.78
482.92	20810.39
483.13	21084.82
483.34	20942.04
483.55	21135.12
483.76	21167.97
483.97	21563.55
484.18	21493.43
484.39	21802.43
484.60	21714.45
484.81	22181.39
485.02	22045.24
485.23	22504.23
485.44	22650.37
485.65	22916.44
485.86	22672.08
486.07	23171.21
486.28	23147.54
486.49	23420.32
486.70	23597.02
486.91	23896.68
487.12	23692.30
487.33	23798.95
487.54	24256.31
487.75	24394.58
487.96	24498.62
488.17	24449.31
488.38	24872.09
488.59	24936.97
488.80	25042.56
489.01	25141.77
489.22	25521.46
489.43	25482.79
489.64	25434.13
489.85	26055.00
490.06	25651.14
490.26	26133.15
490.47	25972.42
490.68	26436.49
490.89	26768.84
491.10	26436.33
491.31	26813.65
491.52	27139.11
491.73	27114.29
491.94	27083.57
492.15	27415.26
492.36	27535.43
492.57	27663.06
492.78	27739.82
492.99	27959.28
493.20	28190.78
493.41	28266.56
493.62	28410.08
493.83	28396.40
494.04	28589.97
494.25	28914.45
494.46	28969.50
494.67	28898.89
494.88	29193.79
495.08	29258.10
495.29	29367.46
495.50	29660.65
495.71	29548.99
495.92	29928.36
496.13	29965.06
496.34	29869.21
496.55	30117.84
496.76	30583.79
496.97	30144.54
497.18	30653.34
497.39	30594.36
497.60	31107.01
497.81	30742.96
498.02	31129.45
498.22	30918.35
498.43	31496.45
498.64	31601.30
498.85	31591.23
499.06	31623.75
499.27	32195.13
499.48	31513.49
499.69	32011.47
499.90	32117.72
500.11	32405.83
500.32	32754.15
500.52	32465.30
500.73	33114.51
500.94	33062.49
501.15	33073.30
501.36	33137.36
501.57	32973.85
501.78	33310.54
501.99	33651.49
502.20	33535.16
502.41	33666.80
502.61	33678.11
502.82	34082.21
503.03	33843.26
503.24	34398.50
503.45	34108.84
503.66	34571.19
503.87	34430.04
504.08	34849.47
504.28	34556.85
504.49	34808.67
504.70	34963.50
504.91	35201.14
505.12	34977.09
505.33	35578.71
505.54	35594.35
505.75	35623.35
505.95	35889.34
506.16	35778.01
506.37	35647.27
506.58	36256.58
506.79	35808.65
507.00	36412.15
507.21	36091.35
507.41	36222.67
507.62	36398.79
507.83	36889.32
508.04	36497.83
508.25	37118.04
508.46	36825.84
508.67	37358.64
508.87	37062.58
509.08	37591.53
509.29	37414.26
509.50	37617.50
509.71	37800.75
509.92	38050.60
510.12	37806.16
510.33	38114.75
510.54	37914.46
510.75	38218.21
510.96	38421.86
511.17	38707.84
511.37	38635.83
511.58	38898.55
511.79	38657.21
512.00	38677.12
512.21	39153.64
512.42	39161.18
512.62	39321.41
512.83	39610.17
513.04	39489.34
513.25	39887.71
513.46	39104.49
513.66	40253.15
513.87	39805.88
514.08	40331.39
514.29	39942.11
514.50	40075.47
514.71	40397.49
514.91	40212.03
515.12	40314.02
515.33	40712.80
515.54	40559.37
515.75	41126.24
515.95	40812.58
516.16	40931.93
516.37	41390.92
516.58	41554.11
516.78	41317.69
516.99	41577.70
517.20	41662.16
517.41	41725.89
517.62	41872.28
517.82	41802.73
518.03	42442.68
518.24	42843.18
518.45	42153.34
518.66	42669.92
518.86	42332.58
519.07	43010.37
519.28	42299.16
519.49	43126.21
519.69	43223.12
519.90	43387.20
520.11	43414.97
520.32	43420.62
520.52	43806.87
520.73	43502.30
520.94	43955.72
521.15	43921.88
521.36	43553.99
521.56	44554.95
521.77	43774.02
521.98	44489.34
522.19	43991.35
522.39	44449.28
522.60	44235.63
522.81	44555.44
523.02	44392.26
523.22	44827.25
523.43	45042.29
523.64	44917.69
523.84	45097.58
524.05	45472.12
524.26	45482.68
524.47	45297.79
524.67	45394.21
524.88	45771.04
525.09	46142.78
525.30	45869.09
525.50	45889.41
525.71	46020.48
525.92	46088.06
526.13	46475.37
526.33	46273.53
526.54	46060.29
526.75	46444.65
526.95	46940.84
527.16	46199.47
527.37	46907.99
527.58	47153.25
527.78	46982.70
527.99	47421.21
528.20	47533.03
528.40	47178.65
528.61	47081.08
528.82	47718.74
529.03	47585.13
529.23	47493.95
529.44	47928.69
529.65	48052.97
529.85	48156.84
530.06	47930.41
530.27	48102.77
530.47	47663.85
530.68	48651.63
530.89	47745.61
531.09	48679.15
531.30	48558.90
531.51	48267.84
531.72	48984.22
531.92	48923.68
532.13	49209.49
532.34	49070.07
532.54	48983.23
532.75	49254.63
532.96	49124.22
533.16	49556.09
533.37	49683.15
533.58	49268.72
533.78	49782.19
533.99	49931.85
534.20	49526.68
534.40	49804.31
534.61	50147.14
534.82	50077.75
535.02	50248.31
535.23	50245.52
535.44	50550.91
535.64	50382.16
535.85	50684.77
536.06	50668.63
536.26	50720.49
536.47	50776.60
536.68	51414.58
536.88	50718.85
537.09	51441.29
537.29	50799.21
537.50	51719.32
537.71	51239.44
537.91	51486.51
538.12	51690.73
538.33	51314.89
538.53	51614.87
538.74	51861.70
538.95	51814.26
539.15	51523.29
539.36	52032.74
539.56	52223.86
539.77	51834.01
539.98	51985.80
540.18	52368.20
540.39	52068.70
540.60	52509.18
540.80	52838.58
541.01	52722.83
541.21	52684.73
541.42	52986.69
541.63	52681.13
541.83	53109.24
542.04	53166.17
542.25	53183.62
542.45	53420.20
542.66	53343.28
542.86	53554.79
543.07	52567.18
543.28	53642.61
543.48	53441.66
543.69	53848.31
543.89	53538.98
544.10	54306.72
544.31	54084.32
544.51	53870.83
544.72	54096.52
544.92	53992.40
545.13	54440.33
545.33	54364.07
545.54	54094.15
545.75	54476.54
545.95	54186.96
546.16	54231.93
546.36	54911.12
546.57	54054.99
546.78	53283.23
546.98	54051.79
547.19	53150.36
547.39	54412.15
547.60	54662.83
547.80	55396.57
548.01	55325.55
548.22	54936.60
548.42	55074.88
548.63	55362.49
548.83	55175.64
549.04	55448.26
549.24	55059.89
549.45	55368.56
549.65	55740.14
549.86	55076.92
550.07	55393.29
550.27	55858.92
550.48	55814.68
550.68	55677.88
550.89	55671.41
551.09	56013.83
551.30	55819.68
551.50	56233.13
551.71	56052.99
551.91	55977.46
552.12	56144.41
552.33	56519.68
552.53	55914.13
552.74	56800.66
552.94	56738.48
553.15	56455.37
553.35	56785.59
553.56	56299.32
553.76	57039.53
553.97	56591.52
554.17	56727.83
554.38	57544.32
554.58	56754.78
554.79	57445.69
554.99	56927.80
555.20	56988.09
555.40	57573.56
555.61	57090.24
555.81	56816.31
556.02	57840.45
556.22	57516.63
556.43	57270.05
556.63	57430.37
556.84	57389.08
557.04	58115.54
557.25	57259.81
557.45	57869.29
557.66	57799.17
557.86	57676.04
558.07	58372.60
558.27	57838.16
558.48	57888.95
558.68	57941.21
558.89	58176.24
559.09	58250.70
559.30	58009.70
559.50	58278.96
559.71	57910.66
559.91	58692.74
560.12	58316.24
560.32	58383.74
560.53	58580.43
560.73	58379.15
560.94	58960.45
561.14	58372.52
561.35	59099.54
561.55	58699.62
561.76	58875.66
561.96	58198.03
562.17	58820.28
562.37	59067.60
562.57	58760.65
562.78	58751.31
562.98	59149.35
563.19	59160.74
563.39	59331.05
563.60	59275.75
563.80	58744.92
564.01	59610.31
564.21	59286.98
564.42	59278.87
564.62	59404.94
564.82	59755.39
565.03	59306.64
565.23	59271.66
565.44	59567.06
565.64	59392.57
565.85	59639.31
566.05	59424.03
566.25	59855.25
566.46	59407.40
566.66	59705.42
566.87	59780.45
567.07	59849.67
567.28	59850.82
567.48	60277.45
567.68	59512.50
567.89	60627.82
568.09	59914.96
568.30	59984.35
568.50	60495.93
568.71	60146.63
568.91	60448.99
569.11	59931.02
569.32	59992.87
569.52	60203.32
569.73	59605.31
569.93	60431.38
570.13	60248.21
570.34	60113.94
570.54	60715.56
570.75	60385.59
570.95	60318.17
571.15	60132.70
571.36	60755.94
571.56	60204.79
571.77	60170.06
571.97	59701.65
572.17	60756.19
572.38	60495.93
572.58	60854.57
572.79	60602.02
572.99	60702.61
573.19	60700.16
573.40	60505.19
573.60	60745.87
573.81	60596.53
574.01	60891.60
574.21	60822.05
574.42	60830.65
574.62	60625.61
574.82	61164.23
575.03	60894.38
575.23	61454.71
575.43	61085.75
575.64	61018.25
575.84	61480.27
576.05	60906.10
576.25	61159.06
576.45	60949.68
576.66	61533.51
576.86	61037.01
577.06	61431.20
577.27	61307.34
577.47	61403.59
577.67	61351.66
577.88	60864.65
578.08	61566.53
578.28	61713.74
578.49	61481.74
578.69	61738.72
578.89	61298.49
579.10	61529.42
579.30	62178.54
579.50	61711.03
579.71	61269.24
579.91	61842.59
580.11	61506.56
580.32	61460.36
580.52	61473.06
580.72	62090.07
580.93	61486.17
581.13	61720.78
581.33	62209.75
581.54	61810.65
581.74	61913.62
581.94	62045.02
582.15	62406.60
582.35	61900.10
582.55	62017.65
582.76	61674.99
582.96	62258.66
583.16	61751.01
583.37	62066.31
583.57	61736.59
583.77	62349.59
583.97	61254.58
584.18	62563.64
584.38	62305.84
584.58	62038.22
584.79	62448.22
584.99	62322.06
585.19	62151.67
585.40	62033.06
585.60	62406.36
585.80	61930.00
586.00	62465.75
586.21	62386.37
586.41	62422.99
586.61	62628.77
586.82	62410.37
587.02	62288.23
587.22	62638.76
587.42	61928.36
587.63	62665.96
587.83	61866.60
588.03	62431.02
588.23	62055.83
588.44	62462.64
588.64	62240.72
588.84	62652.28
589.05	62720.93
589.25	62726.74
589.45	62770.41
589.65	62577.32
589.86	62848.56
590.06	62758.36
590.26	62530.88
590.46	62902.30
590.67	62205.66
590.87	63049.59
591.07	63196.38
591.27	62593.54
591.48	63131.42
591.68	62422.09
591.88	63514.88
592.08	62653.51
592.29	63144.61
592.49	62997.16
592.69	63228.33
592.89	62882.47
593.10	62989.37
593.30	62769.34
593.50	63398.97
593.70	62251.94
593.90	63045.16
594.11	62908.93
594.31	63035.58
594.51	63182.70
594.71	63249.71
594.92	63279.29
595.12	63038.20
595.32	63213.59
595.52	63539.46
595.72	62620.09
595.93	63541.51
596.13	63216.21
596.33	62850.11
596.53	63411.99
596.73	63361.04
596.94	63211.13
597.14	63627.85
597.34	63270.11
597.54	63615.23
597.74	63028.04
597.95	63282.81
598.15	63190.98
598.35	63491.37
598.55	63645.79
598.75	63295.34
598.96	64073.49
599.16	63489.98
599.36	63676.84
599.56	63587.30
599.76	63412.08
599.97	63983.13
600.17	63591.72
600.37	63789.88
600.57	62977.01
600.77	63976.91
600.97	63504.97
601.18	64048.17
601.38	63582.47
601.58	63887.53
601.78	63707.23
601.98	63520.04
602.18	63944.96
602.39	64370.85
602.59	64061.04
602.79	63948.56
602.99	63928.82
603.19	63954.30
603.39	63771.78
603.60	63837.81
603.80	63939.30
604.00	63784.15
604.20	63853.95
604.40	64144.10
604.60	63738.19
604.80	63763.43
605.01	64104.04
605.21	63843.54
605.41	63752.12
605.61	63411.01
605.81	63822.32
606.01	64114.69
606.21	63603.85
606.42	64187.11
606.62	63968.63
606.82	64346.11
607.02	63968.71
607.22	64188.42
607.42	64395.18
607.62	63686.83
607.82	63947.41
608.03	63903.75
608.23	63666.68
608.43	63504.81
608.63	64101.83
608.83	64060.46
609.03	64052.52
609.23	64167.20
609.43	64350.70
609.63	64113.87
609.84	63892.20
610.04	64568.03
610.24	64391.00
610.44	64384.86
610.64	63996.73
610.84	64297.62
611.04	64771.11
611.24	64247.32
611.44	63555.02
611.64	64230.61
611.85	64163.60
612.05	64042.85
612.25	64298.19
612.45	63988.29
612.65	64296.39
612.85	64357.75
613.05	64021.96
613.25	64648.97
613.45	64311.30
613.65	64360.29
613.85	63840.84
614.05	64282.22
614.25	64501.76
614.46	64346.93
614.66	64085.12
614.86	63983.46
615.06	64138.29
615.26	64508.72
615.46	63642.27
615.66	64447.36
615.86	64330.71
616.06	63887.61
616.26	63930.70
616.46	64577.12
616.66	64127.06
616.86	64697.30
617.06	64223.07
617.26	64756.03
617.46	64369.87
617.66	64099.21
617.86	63812.82
618.07	64193.99
618.27	63991.81
618.47	64088.72
618.67	64172.94
618.87	64305.40
619.07	64010.49
619.27	63887.20
619.47	63891.79
619.67	64432.13
619.87	63943.40
620.07	64397.89
620.27	64250.60
620.47	63808.07
620.67	64215.37
620.87	64211.68
621.07	64410.67
621.27	64175.80
621.47	63794.23
621.67	64163.02
621.87	63708.46
622.07	64275.58
622.27	64160.89
622.47	63783.00
622.67	64006.15
622.87	63568.29
623.07	64172.28
623.27	64610.79
623.47	63600.49
623.67	64084.06
623.87	64443.76
624.07	64201.61
624.27	63749.66
624.47	64022.78
624.67	63928.41
624.87	64082.91
625.07	63593.53
625.27	64135.42
625.47	63694.94
625.67	63668.97
625.87	63995.42
626.07	63819.38
626.27	64048.09
626.47	63954.13
626.67	63841.08
626.87	63377.42
627.07	63846.08
627.27	63755.07
627.47	63897.94
627.67	63621.46
627.87	63764.33
628.07	64160.16
628.27	63951.26
628.47	63698.22
628.67	64202.35
628.86	64106.26
629.06	63748.11
629.26	63642.19
629.46	64114.37
629.66	63883.27
629.86	63372.18
630.06	64029.91
630.26	63714.36
630.46	64019.42
630.66	63421.50
630.86	63537.49
631.06	63412.08
631.26	63222.02
631.46	63611.79
631.66	63647.26
631.86	63203.76
632.06	63781.28
632.26	63551.67
632.45	63644.40
632.65	63762.11
632.85	63788.74
633.05	63601.80
633.25	63563.05
633.45	63142.89
633.65	63340.56
633.85	63853.78
634.05	62775.98
634.25	63157.72
634.45	63254.30
634.65	63570.42
634.84	63077.36
635.04	63296.41
635.24	62886.98
635.44	63344.82
635.64	63054.58
635.84	63322.29
636.04	63154.36
636.24	63065.72
636.44	63203.51
636.64	62409.06
636.84	63453.85
637.03	62698.48
637.23	63078.58
637.43	63167.38
637.63	63025.50
637.83	63139.37
638.03	63126.67
638.23	62573.23
638.43	63147.64
638.62	63251.60
638.82	62225.81
639.02	63034.02
639.22	62624.51
639.42	62854.45
639.62	62455.76
639.82	62542.43
640.02	62613.78
640.21	62718.96
640.41	62287.66
640.61	62851.51
640.81	62733.54
641.01	62682.75
641.21	62538.74
641.41	63208.59
641.61	62608.94
641.80	62622.22
642.00	62939.16
642.20	62956.36
642.40	62111.53
642.60	62625.16
642.80	62756.89
642.99	62380.72
643.19	62824.72
643.39	62178.05
643.59	62670.71
643.79	62385.22
643.99	62575.85
644.19	62249.40
644.38	61776.08
644.58	62170.35
644.78	62097.85
644.98	61978.09
645.18	62104.57
645.38	62371.38
645.57	62091.14
645.77	62226.22
645.97	62010.12
646.17	62533.25
646.37	62436.26
646.56	62091.22
646.76	62076.06
646.96	62117.76
647.16	61990.13
647.36	62119.15
647.55	62050.50
647.75	62154.87
647.95	61787.38
648.15	61995.86
648.35	61846.85
648.55	61974.57
648.74	61694.49
648.94	61700.87
649.14	61959.90
649.34	61502.80
649.54	61595.12
649.73	61759.28
649.93	61435.13
650.13	61593.15
650.33	61465.11
650.52	61865.12
650.72	62103.10
650.92	61642.71
651.12	61454.55
651.32	61722.17
651.51	61843.74
651.71	61845.54
651.91	61580.54
652.11	61387.37
652.30	61078.46
652.50	61602.16
652.70	61606.01
652.90	61120.32
653.10	61544.49
653.29	61128.75
653.49	61615.60
653.69	60933.62
653.89	61155.05
654.08	60818.20
654.28	61323.72
654.48	61075.02
654.68	61304.96
654.87	61025.29
655.07	60845.23
655.27	61458.40
655.47	60903.31
655.66	60998.18
655.86	60806.49
656.06	61395.07
656.26	60403.53
656.45	60854.74
656.65	60723.91
656.85	60549.26
657.04	60286.71
657.24	60255.42
657.44	60225.68
657.64	60780.60
657.83	59763.33
658.03	60522.15
658.23	60468.08
658.43	60436.38
658.62	60459.81
658.82	60092.07
659.02	60098.22
659.21	60337.01
659.41	60008.02
659.61	60496.26
659.81	60132.38
660.00	59981.65
660.20	60175.06
660.40	59904.97
660.59	59881.05
660.79	59283.70
660.99	59850.08
661.19	59723.77
661.38	59685.35
661.58	58856.90
661.78	59387.16
661.97	59133.13
662.17	59961.49
662.37	59318.76
662.56	59407.56
662.76	59497.42
662.96	59565.83
663.15	59809.04
663.35	59639.31
663.55	59411.33
663.74	59226.60
663.94	59714.10
664.14	59072.59
664.33	59369.79
664.53	58905.73
664.73	59453.02
664.93	58607.30
665.12	59094.30
665.32	58766.05
665.52	58852.23
665.71	58657.18
665.91	58939.89
666.10	58590.67
666.30	58958.81
666.50	58457.38
666.69	58419.29
666.89	58811.11
667.09	59029.91
667.28	58499.98
667.48	58381.77
667.68	58481.80
667.87	58533.57
668.07	58045.99
668.27	58707.65
668.46	58664.23
668.66	58250.29
668.86	58681.68
669.05	58226.86
669.25	58498.67
669.44	58141.01
669.64	58060.73
669.84	58067.45
670.03	58564.21
670.23	58117.58
670.43	58112.75
670.62	58071.06
670.82	57848.89
671.01	57978.49
671.21	57589.95
671.41	57720.69
671.60	58036.40
671.80	58262.01
672.00	57899.27
672.19	58185.41
672.39	58065.07
672.58	57828.33
672.78	57585.36
672.98	58060.08
673.17	57664.66
673.37	56874.30
673.56	57196.49
673.76	57459.12
673.96	57648.03
674.15	57320.68
674.35	57487.30
674.54	57374.42
674.74	57366.96
674.94	57265.30
675.13	57510.73
675.33	56838.42
675.52	57523.43
675.72	57278.98
675.91	57131.37
676.11	57469.28
676.31	56806.23
676.50	57063.86
676.70	56953.52
676.89	57017.25
677.09	57192.31
677.28	56896.75
677.48	56170.70
677.68	56663.04
677.87	56389.75
678.07	56308.41
678.26	56516.81
678.46	56542.94
678.65	56489.37
678.85	56811.47
679.04	56197.82
679.24	56543.93
679.44	56414.17
679.63	56652.22
679.83	56324.96
680.02	56397.21
680.22	55913.15
680.41	56058.07
680.61	55712.86
680.80	55672.80
681.00	55787.98
681.19	55779.13
681.39	55680.01
681.59	55540.67
681.78	55499.63
681.98	55866.70
682.17	55083.72
682.37	55533.62
682.56	55190.71
682.76	55649.86
682.95	55335.38
683.15	55382.40
683.34	55240.84
683.54	55466.53
683.73	55432.45
683.93	54997.55
684.12	55494.14
684.32	55630.94
684.51	54820.03
684.71	55228.15
684.90	55093.80
685.10	54842.31
685.29	54673.64
685.49	55044.24
685.68	54932.42
685.88	54901.21
686.07	54539.87
686.27	55019.17
686.46	54829.86
686.66	54633.17
686.85	54880.98
687.05	54517.99
687.24	54339.49
687.44	54595.24
687.63	54540.93
687.83	53853.30
688.02	54422.15
688.22	54688.14
688.41	54428.05
688.61	54354.32
688.80	54526.51
689.00	53999.45
689.19	53936.70
689.39	54516.27
689.58	54410.68
689.77	54155.75
689.97	54349.32
690.16	53976.76
690.36	53460.59
690.55	53362.12
690.75	54023.53
690.94	53416.02
691.14	53581.17
691.33	53111.94
691.53	53503.18
691.72	53260.46
691.91	53232.28
692.11	53240.55
692.30	53362.61
692.50	53503.02
692.69	53013.23
692.89	53146.43
693.08	52990.21
693.28	52935.90
693.47	53026.99
693.66	52906.49
693.86	52808.27
694.05	52763.87
694.25	52788.28
694.44	53009.38
694.64	52828.91
694.83	52713.81
695.02	52640.58
695.22	52779.60
695.41	52391.63
695.61	52311.84
695.80	52304.30
695.99	52201.49
696.19	52306.19
696.38	52239.75
696.58	51857.93
696.77	52639.43
696.96	52403.83
697.16	52145.46
697.35	52022.99
697.55	51872.26
697.74	51635.68
697.93	52165.70
698.13	51619.46
698.32	51921.09
698.52	51702.28
698.71	51109.52
698.90	52006.94
699.10	51473.89
699.29	51462.18
699.49	51830.81
699.68	51416.55
699.87	51326.77
700.07	51592.10
700.26	51323.33
700.45	51201.27
700.65	50878.42
700.84	51410.08
701.04	50917.42
701.23	51181.28
701.42	51016.70
701.62	50838.53
701.81	51021.05
702.00	50928.80
702.20	50511.76
702.39	50781.92
702.58	50957.72
702.78	50535.27
702.97	50402.07
703.17	50424.27
703.36	50494.06
703.55	50282.14
703.75	50179.82
703.94	50465.55
704.13	50116.99
704.33	50074.15
704.52	50498.16
704.71	50245.19
704.91	50010.91
705.10	49648.25
705.29	49883.85
705.49	49841.91
705.68	49879.51
705.87	49940.05
706.07	49442.88
706.26	49905.80
706.45	49229.15
706.65	49050.24
706.84	49564.04
707.03	49804.72
707.23	48980.45
707.42	48842.58
707.61	49433.95
707.80	48964.64
708.00	49139.95
708.19	48998.39
708.38	49389.14
708.58	48511.30
708.77	49117.34
708.96	48404.89
709.16	48334.52
709.35	49080.88
709.54	48554.47
709.74	48458.79
709.93	48128.66
710.12	48817.51
710.31	48971.60
710.51	48357.05
710.70	48310.44
710.89	48379.98
711.09	47857.26
711.28	47743.07
711.47	48116.94
711.66	47937.13
711.86	47791.07
712.05	47867.67
712.24	48063.53
712.43	47605.03
712.63	47135.23
712.82	47728.49
713.01	47533.35
713.21	47286.70
713.40	47364.27
713.59	47772.31
713.78	47176.52
713.98	47599.30
714.17	47383.61
714.36	47413.18
714.55	46993.02
714.75	47095.91
714.94	46958.78
715.13	47270.89
715.32	46649.70
715.52	46798.38
715.71	46555.00
715.90	46671.16
716.09	46415.33
716.29	46786.50
716.48	46455.88
716.67	45937.00
716.86	46348.07
717.06	46343.08
717.25	46464.23
717.44	46564.67
717.63	46577.36
717.82	45967.97
718.02	46177.85
718.21	46324.81
718.40	46196.52
718.59	45901.29
718.79	45603.92
718.98	45681.99
719.17	45983.37
719.36	45975.92
719.55	45739.58
719.75	45603.68
719.94	45437.30
720.13	45628.25
720.32	45305.98
720.51	44956.68
720.71	44932.43
720.90	44466.56
721.09	44890.82
721.28	44638.10
721.47	45193.59
721.67	44937.51
721.86	44919.16
722.05	45040.73
722.24	44613.77
722.43	45050.81
722.63	44499.58
722.82	44494.66
723.01	44403.24
723.20	44040.75
723.39	44100.47
723.58	44330.90
723.78	43668.02
723.97	44231.13
724.16	43715.86
724.35	43862.17
724.54	43616.82
724.73	44063.36
724.93	43778.69
725.12	44132.50
725.31	43386.96
725.50	43780.57
725.69	44074.83
725.88	43641.23
726.08	43209.76
726.27	43724.46
726.46	42995.22
726.65	43843.98
726.84	43148.90
727.03	43120.88
727.23	43436.68
727.42	42899.29
727.61	42895.93
727.80	42678.44
727.99	42928.05
728.18	42877.34
728.37	42614.46
728.56	42537.13
728.76	42526.89
728.95	42664.76
729.14	42492.98
729.33	42372.06
729.52	42275.40
729.71	42234.28
729.90	42111.81
730.09	41882.11
730.29	42237.47
730.48	41597.77
730.67	42181.93
730.86	41709.91
731.05	42185.53
731.24	41781.18
731.43	41838.53
731.62	41642.33
731.81	41521.50
732.01	42010.72
732.20	41364.30
732.39	41697.71
732.58	41534.69
732.77	40901.21
732.96	41455.47
733.15	41486.77
733.34	41170.97
733.53	41255.10
733.72	41320.23
733.92	41199.72
734.11	41210.46
734.30	41213.73
734.49	41530.10
734.68	41209.80
734.87	41042.60
735.06	41010.66
735.25	41015.49
735.44	40729.02
735.63	40897.94
735.82	40837.56
736.01	40714.27
736.20	40641.69
736.40	40973.79
736.59	40705.51
736.78	40858.70
736.97	40320.98
737.16	40373.08
737.35	40543.64
737.54	40415.84
737.73	40034.51
737.92	40322.29
738.11	40404.54
738.30	40098.49
738.49	40078.91
738.68	40023.45
738.87	40219.32
739.06	39900.08
739.25	40068.02
739.44	39925.56
739.63	39710.93
739.82	39455.35
740.01	39713.06
740.20	39273.65
740.39	39279.71
740.59	39187.88
740.78	39278.32
740.97	39068.12
741.16	38897.73
741.35	39129.97
741.54	39024.95
741.73	39187.64
741.92	38965.72
742.11	39089.50
742.30	39100.15
742.49	38770.26
742.68	39080.40
742.87	38994.96
743.06	38549.90
743.25	38809.75
743.44	38423.33
743.63	38689.24
743.82	38304.47
744.01	38377.54
744.20	38123.35
744.39	38511.81
744.58	38298.65
744.77	38122.94
744.96	37905.03
745.15	38170.12
745.34	37810.09
745.53	38014.81
745.72	37709.25
745.91	37806.90
746.10	37534.43
746.29	37754.39
746.48	37808.62
746.67	37591.04
746.86	37601.12
747.04	37482.58
747.23	37339.55
747.42	37556.31
747.61	37099.20
747.80	37733.50
747.99	37044.48
748.18	37487.74
748.37	37305.80
748.56	36792.91
748.75	37115.83
748.94	37017.69
749.13	37013.59
749.32	36831.24
749.51	36941.34
749.70	36992.54
749.89	36763.01
750.08	36873.35
750.27	36416.00
750.46	36715.90
750.65	36984.43
750.84	36548.30
751.02	36692.47
751.21	36416.82
751.40	36506.76
751.59	36538.79
751.78	36355.87
751.97	36229.30
752.16	35933.99
752.35	36325.48
752.54	35910.48
752.73	36244.05
752.92	35932.02
753.11	35937.51
753.30	35961.68
753.49	36022.46
753.67	35824.38
753.86	35540.86
754.05	35741.07
754.24	35545.36
754.43	35537.50
754.62	35671.44
754.81	35268.97
755.00	35386.52
755.19	35304.03
755.38	34883.87
755.56	35213.84
755.75	35470.65
755.94	35083.83
756.13	35104.23
756.32	35213.35
756.51	34985.61
756.70	35172.63
756.89	35055.24
757.08	34963.99
757.26	34961.94
757.45	34981.52
757.64	34652.29
757.83	35064.91
758.02	34821.28
758.21	34751.00
758.40	34886.41
758.59	34887.31
758.77	34635.74
758.96	34628.53
759.15	34646.31
759.34	34244.25
759.53	34377.94
759.72	34307.74
759.91	33993.50
760.09	34152.34
760.28	34238.27
760.47	33881.35
760.66	34338.62
760.85	33810.24
761.04	34068.04
761.23	33923.87
761.41	33866.52
761.60	33966.79
761.79	33749.30
761.98	33566.29
762.17	33960.07
762.36	33563.83
762.54	33923.29
762.73	33701.70
762.92	33538.44
763.11	33866.19
763.30	33859.31
763.49	33624.94
763.67	33501.90
763.86	33541.88
764.05	33694.25
764.24	33466.43
764.43	33724.47
764.61	33238.12
764.80	33121.23
764.99	33508.62
765.18	33016.94
765.37	33200.93
765.55	33133.43
765.74	32951.16
765.93	32692.54
766.12	33040.21
766.31	33056.02
766.49	33116.47
766.68	33189.71
766.87	33007.85
767.06	32914.30
767.25	32950.10
767.43	32929.21
767.62	32680.83
767.81	32833.28
768.00	32484.80
768.19	32423.77
768.37	32476.93
768.56	32577.37
768.75	32629.88
768.94	32692.63
769.12	32473.66
769.31	32321.21
769.50	32292.78
769.69	32369.05
769.88	31941.19
770.06	32474.72
770.25	32124.93
770.44	32090.03
770.63	32388.63
770.81	32226.59
771.00	31986.65
771.19	31877.37
771.38	31878.27
771.56	32040.55
771.75	31339.82
771.94	31807.58
772.13	31816.01
772.31	31651.44
772.50	32011.88
772.69	31735.16
772.88	32054.97
773.06	31617.77
773.25	31751.71
773.44	31774.64
773.62	31587.30
773.81	31740.48
774.00	31520.78
774.19	31549.45
774.37	31431.08
774.56	31741.14
774.75	31297.30
774.94	31661.68
775.12	31327.70
775.31	31489.16
775.50	31437.14
775.68	31293.45
775.87	31204.00
776.06	31139.69
776.25	31387.09
776.43	31082.92
776.62	31353.42
776.81	30892.63
776.99	31181.55
777.18	31054.82
777.37	30693.81
777.55	31014.11
777.74	30899.42
777.93	30827.42
778.12	30833.32
778.30	30634.83
778.49	30557.58
778.68	30808.17
778.86	30645.97
779.05	30772.53
779.24	30709.13
779.42	30590.92
779.61	30418.48
779.80	30548.32
779.98	30759.43
780.17	30928.67
780.36	30511.38
780.54	30762.62
780.73	30158.47
780.92	30571.09
781.10	30302.73
781.29	30178.46
781.48	30002.50
781.66	30069.59
781.85	30195.99
782.04	29976.45
782.22	30130.78
782.41	29893.63
782.60	30043.70
782.78	29991.03
782.97	30148.72
783.16	29716.03
783.34	29735.28
783.53	29889.53
783.71	29595.28
783.90	29671.71
784.09	29660.73
784.27	29617.40
784.46	29559.48
784.65	29695.14
784.83	29532.86
785.02	29569.47
785.20	29861.84
785.39	29353.78
785.58	29777.55
785.76	29748.47
785.95	29636.24
786.14	29700.13
786.32	29709.55
786.51	29517.37
786.69	29778.20
786.88	29606.75
787.07	29518.44
787.25	29650.82
787.44	29523.52
787.62	29527.78
787.81	29584.47
788.00	29521.39
788.18	29342.23
788.37	29321.34
788.55	29714.72
788.74	29418.66
788.93	29685.06
789.11	29933.11
789.30	29786.56
789.48	29629.85
789.67	29829.57
789.86	29764.19
790.04	29839.56
790.23	29674.33
790.41	29679.41
790.60	29872.25
790.78	29811.63
790.97	29517.70
791.16	29738.23
791.34	30029.20
791.53	29453.72
791.71	29936.88
791.90	29553.99
792.08	29606.42
792.27	29615.68
792.46	29500.09
792.64	29623.62
792.83	29414.65
793.01	29519.91
793.20	29463.88
793.38	29410.39
793.57	29448.15
793.75	29411.45
793.94	29535.56
794.12	29748.63
794.31	29490.83
794.50	29742.65
794.68	29826.37
794.87	29640.99
795.05	29838.58
795.24	29589.22
795.42	29476.82
795.61	29900.26
795.79	29955.97
795.98	29487.39
796.16	29812.36
796.35	29874.21
796.53	29574.14
796.72	29927.54
796.90	29948.51
797.09	29922.95
797.27	29928.85
797.46	29784.02
797.64	29880.36
797.83	29853.65
798.01	29791.06
798.20	29902.97
798.38	29591.92
798.57	29964.73
798.75	29730.53
798.94	29381.88
799.12	30167.48
799.31	29742.49
799.49	29637.06
799.68	29517.37
799.86	29559.15
800.05	29455.77
800.23	29529.83
800.42	29427.34
800.60	29832.43
800.79	29373.28
800.97	29601.42
801.16	29799.26
801.34	29395.23
801.53	29443.56
801.71	29664.09
801.90	29442.58
802.08	29771.73
802.27	29586.59
802.45	29337.97
802.64	29474.86
802.82	29586.35
803.00	29150.79
803.19	29413.66
803.37	29591.51
803.56	29378.44
803.74	29406.37
803.93	29442.91
804.11	29306.02
804.30	29214.03
804.48	29440.53
804.67	29503.37
804.85	29399.57
805.03	29598.47
805.22	29305.70
805.40	29133.91
805.59	29373.69
805.77	29358.86
805.96	29175.85
806.14	29181.92
806.32	29216.98
806.51	29420.55
806.69	29017.75
806.88	28883.98
807.06	28806.81
807.25	28831.06
807.43	28746.35
807.61	28877.75
807.80	28776.34
807.98	28955.17
808.17	28741.03
808.35	28733.33
808.53	29068.46
808.72	28938.54
808.90	28893.81
809.09	28987.61
809.27	28913.63
809.45	28684.10
809.64	28918.14
809.82	28648.22
810.01	28701.71
810.19	28701.14
810.37	28534.43
810.56	28388.21
810.74	28613.89
810.93	28296.29
811.11	28302.11
811.29	28091.66
811.48	28349.29
811.66	28322.75
811.84	28282.78
812.03	28198.48
812.21	28224.04
812.40	28337.42
812.58	28471.76
812.76	28167.84
812.95	28335.94
813.13	27851.15
813.31	28077.32
813.50	28112.39
813.68	28047.51
813.86	28148.27
814.05	28179.97
814.23	27703.20
814.42	28037.43
814.60	27834.76
814.78	27973.37
814.97	27931.92
815.15	27901.77
815.33	28063.81
815.52	27884.41
815.70	27931.84
815.88	27957.48
816.07	27621.94
816.25	27721.55
816.43	27648.64
816.62	27361.03
816.80	27378.07
816.98	27255.84
817.17	27272.55
817.35	27236.76
817.53	27264.77
817.72	27395.68
817.90	27062.19
818.08	27132.39
818.26	27256.09
818.45	27027.04
818.63	27183.59
818.81	27213.24
819.00	26839.20
819.18	27062.35
819.36	27002.39
819.55	27020.57
819.73	26764.25
819.91	27057.44
820.09	26938.65
820.28	27165.49
820.46	26860.34
820.64	27321.46
820.83	26911.54
821.01	26961.34
821.19	26798.24
821.38	26811.92
821.56	26740.16
821.74	26753.76
821.92	26572.23
822.11	26812.17
822.29	26479.09
822.47	26500.31
822.65	26614.01
822.84	26662.18
823.02	26293.87
823.20	26661.11
823.39	26336.39
823.57	26403.89
823.75	26412.16
823.93	26263.64
824.12	26365.22
824.30	26285.27
824.48	26231.53
824.66	26477.86
824.85	25916.14
825.03	26265.20
825.21	26317.30
825.39	26201.22
825.58	26256.93
825.76	26100.05
825.94	26148.79
826.12	25992.08
826.31	25995.52
826.49	26028.70
826.67	25994.21
826.85	25922.45
827.03	25960.38
827.22	26092.84
827.40	25905.41
827.58	25822.84
827.76	25966.36
827.95	25695.62
828.13	25829.96
828.31	25813.17
828.49	25848.81
828.67	25806.45
828.86	25651.05
829.04	25758.12
829.22	25623.20
829.40	25568.81
829.58	25537.76
829.77	25504.75
829.95	25524.74
830.13	25369.99
830.31	25290.28
830.49	25430.86
830.68	25373.68
830.86	25230.81
831.04	25145.45
831.22	25160.69
831.40	25038.30
831.59	25314.12
831.77	25083.36
831.95	25212.54
832.13	24944.01
832.31	25179.53
832.50	25067.30
832.68	24948.60
832.86	25052.31
833.04	25126.36
833.22	24784.11
833.40	25143.81
833.59	24743.23
833.77	25004.88
833.95	24461.43
834.13	25204.27
834.31	24767.48
834.49	24858.57
834.67	24781.32
834.86	24820.07
835.04	24631.17
835.22	24677.37
835.40	24545.48
835.58	24462.99
835.76	24591.52
835.95	24532.29
836.13	24393.93
836.31	24360.51
836.49	24550.31
836.67	24473.88
836.85	24418.26
837.03	24336.01
837.21	24325.94
837.40	24164.47
837.58	23953.94
837.76	24159.89
837.94	24109.02
838.12	24309.39
838.30	24021.69
838.48	24015.79
838.66	23982.45
838.85	23887.18
839.03	23872.27
839.21	23849.74
839.39	23770.20
839.57	23951.32
839.75	23751.03
839.93	23832.38
840.11	23867.11
840.29	23793.14
840.47	23776.59
840.66	23680.25
840.84	23640.69
841.02	23487.42
841.20	23501.01
841.38	23447.60
841.56	23401.73
841.74	23681.97
841.92	23344.96
842.10	23299.58
842.28	23461.94
842.46	23299.00
842.65	23245.35
842.83	23376.50
843.01	23520.35
843.19	23177.76
843.37	23345.86
843.55	23176.86
843.73	23308.42
843.91	23322.51
844.09	23261.48
844.27	23434.99
844.45	23167.69
844.63	23160.31
844.81	23200.13
844.99	23188.41
845.17	23085.03
845.35	23212.58
845.54	23046.53
845.72	23083.15
845.90	23027.44
846.08	22956.50
846.26	22748.02
846.44	22907.51
846.62	22580.08
846.80	22545.76
846.98	22599.09
847.16	22479.08
847.34	22632.02
847.52	22527.57
847.70	22464.01
847.88	22675.85
848.06	22592.45
848.24	22691.08
848.42	22623.01
848.60	22455.81
848.78	22643.57
848.96	22526.59
849.14	22497.92
849.32	22615.15
849.50	22439.68
849.68	22552.48
849.86	22470.31
850.04	22288.21
850.22	22277.72
850.40	22033.03
850.58	22227.10
850.76	22556.41
850.94	21879.76
851.12	22221.69
851.30	22019.68
851.48	22237.91
851.66	22035.00
851.84	21978.06
852.02	21964.22
852.20	22087.75
852.38	21826.51
852.56	21900.16
852.74	21947.51
852.92	21808.16
853.10	21690.77
853.28	21878.29
853.46	21443.13
853.64	21768.60
853.82	21581.33
854.00	21639.58
854.18	21481.06
854.36	21417.33
854.54	21507.60
854.72	21311.65
854.90	21290.77
855.07	21384.40
855.25	21333.94
855.43	21313.95
855.61	21310.26
855.79	21210.57
855.97	21308.13
856.15	21307.39
856.33	21251.36
856.51	21431.91
856.69	21131.11
856.87	21322.30
857.05	21148.96
857.23	21181.65
857.41	20958.26
857.59	20958.09
857.77	20929.34
857.94	20871.10
858.12	20951.38
858.30	20826.20
858.48	20780.08
858.66	20669.25
858.84	20820.55
859.02	20654.67
859.20	20573.89
859.38	20855.94
859.56	20718.48
859.74	20572.75
859.92	20711.93
860.09	20531.21
860.27	20707.42
860.45	20527.45
860.63	20604.20
860.81	20702.51
860.99	20602.73
861.17	20349.03
861.35	20003.08
861.53	19914.78
861.70	19782.56
861.88	20147.59
862.06	20201.66
862.24	19915.35
862.42	19941.73
862.60	20227.54
862.78	20125.06
862.96	20274.48
863.14	20032.25
863.31	20090.74
863.49	20004.15
863.67	19864.81
863.85	19854.81
864.03	19940.66
864.21	19846.13
864.39	19857.10
864.56	19738.24
864.74	19842.85
864.92	19659.76
865.10	19589.31
865.28	19651.98
865.46	19836.63
865.64	19371.90
865.81	19679.01
865.99	19394.43
866.17	19596.36
866.35	19491.34
866.53	19498.96
866.71	19512.72
866.88	19526.97
867.06	19362.81
867.24	19463.32
867.42	19331.02
867.60	19372.64
867.78	19233.38
867.95	19500.84
868.13	19221.42
868.31	19354.78
868.49	19341.26
868.67	19226.66
868.84	19143.35
869.02	19267.45
869.20	18873.10
869.38	19217.73
869.56	18967.96
869.73	18892.92
869.91	18956.82
870.09	18978.77
870.27	18850.08
870.45	18842.95
870.62	18702.95
870.80	18776.68
870.98	18711.06
871.16	18725.40
871.34	18646.67
871.51	18687.96
871.69	18505.04
871.87	18555.01
872.05	18566.88
872.23	18510.69
872.40	18336.53
872.58	18453.02
872.76	18265.51
872.94	18216.19
873.11	18307.04
873.29	18230.69
873.47	18235.11
873.65	18198.09
873.83	18233.56
874.00	18225.94
874.18	18321.87
874.36	18230.36
874.54	18298.76
874.71	18167.94
874.89	18003.61
875.07	18140.74
875.25	18066.12
875.42	18066.69
875.60	17998.37
875.78	18105.44
875.96	17890.24
876.13	17979.94
876.31	17677.98
876.49	17714.11
876.66	17517.75
876.84	17869.18
877.02	17635.30
877.20	17670.12
877.37	17745.98
877.55	17702.64
877.73	17680.28
877.91	17568.30
878.08	17700.27
878.26	17649.15
878.44	17608.03
878.61	17659.96
878.79	17568.95
878.97	17562.48
879.15	17733.03
879.32	17683.96
879.50	17660.04
879.68	17806.84
879.85	17576.98
880.03	17716.32
880.21	17493.26
880.38	17632.68
880.56	17429.52
880.74	17671.19
880.92	17357.60
881.09	17509.48
881.27	17364.97
881.45	17409.54
881.62	17303.86
881.80	17297.88
881.98	17215.96
882.15	17318.44
882.33	17150.26
882.51	17202.45
882.68	17083.42
882.86	17359.57
883.04	17091.53
883.21	17138.22
883.39	17312.14
883.57	17177.79
883.74	17283.22
883.92	17275.44
884.10	17281.25
884.27	17280.76
884.45	17159.27
884.63	17314.67
884.80	17200.32
884.98	17259.30
885.16	17203.92
885.33	17183.60
885.51	17196.55
885.69	17208.26
885.86	17088.66
886.04	17170.66
886.21	16958.98
886.39	17123.23
886.57	16847.98
886.74	17048.68
886.92	17030.91
887.10	17051.31
887.27	16992.16
887.45	17074.08
887.62	17053.19
887.80	17063.35
887.98	17273.14
888.15	17164.11
888.33	17143.79
888.51	17268.47
888.68	17129.37
888.86	17220.88
889.03	17093.49
889.21	17083.17
889.39	17148.38
889.56	17100.13
889.74	17094.72
889.91	17079.24
890.09	17105.37
890.27	17111.52
890.44	17088.17
890.62	17133.88
890.79	17148.79
890.97	17130.85
891.14	17134.94
891.32	17136.50
891.50	17025.09
891.67	17142.07
891.85	17048.93
892.02	17032.05
892.20	17205.72
892.38	17125.36
892.55	17038.61
892.73	17163.86
892.90	16983.89
893.08	17054.34
893.25	16992.49
893.43	17146.00
893.60	16933.18
893.78	17177.54
893.96	17077.60
894.13	17103.24
894.31	17200.73
894.48	17066.62
894.66	17192.53
894.83	17191.71
895.01	17137.48
895.18	17185.57
895.36	17060.81
895.53	17176.15
895.71	17056.88
895.89	17106.03
896.06	16964.31
896.24	17052.94
896.41	17007.97
896.59	17059.50
896.76	16826.36
896.94	17024.19
897.11	17006.82
897.29	17005.10
897.46	16812.27
897.64	16865.02
897.81	16831.44
897.99	16655.72
898.16	16916.63
898.34	16838.40
898.51	16774.67
898.69	16647.20
898.86	16701.51
899.04	16746.08
899.21	16640.32
899.39	16645.73
899.56	16539.48
899.74	16764.18
899.91	16556.76
900.09	16570.52
900.26	16669.56
900.44	16526.29
900.61	16610.34
900.79	16789.41
900.96	16542.75
901.14	16632.29
901.31	16496.06
901.49	16452.97
901.66	16548.24
901.84	16452.32
902.01	16389.81
902.19	16433.97
902.36	16327.55
902.54	16332.88
902.71	16339.43
902.88	16397.27
903.06	16191.57
903.23	16453.95
903.41	16293.31
903.58	16223.35
903.76	16138.81
903.93	16267.67
904.11	16236.87
904.28	16161.91
904.45	16153.89
904.63	16126.77
904.80	15935.90
904.98	16050.01
905.15	15847.59
905.33	15938.44
905.50	15829.98
905.68	15905.84
905.85	15808.93
906.02	15859.06
906.20	15872.66
906.37	15655.57
906.55	15582.91
906.72	15712.92
906.90	15590.04
907.07	15516.23
907.24	15580.54
907.42	15491.49
907.59	15489.77
907.77	15428.00
907.94	15434.72
908.11	15420.71
908.29	15346.74
908.46	15348.46
908.64	15229.92
908.81	15286.53
908.98	15184.46
909.16	15298.90
909.33	15181.84
909.51	15101.64
909.68	15081.98
909.85	15120.48
910.03	15092.79
910.20	14985.40
910.37	14959.43
910.55	14972.95
910.72	14872.19
910.90	14761.43
911.07	14753.57
911.24	14665.01
911.42	14760.69
911.59	14588.75
911.76	14629.62
911.94	14558.52
912.11	14549.92
912.29	14461.20
912.46	14420.40
912.63	14446.45
912.81	14313.99
912.98	14427.04
913.15	14301.21
913.33	14390.58
913.50	14384.44
913.67	14269.35
913.85	14220.93
914.02	14196.60
914.19	14141.80
914.37	14081.75
914.54	14092.97
914.71	14055.86
914.89	13995.16
915.06	14059.47
915.23	13929.05
915.41	13871.14
915.58	13871.47
915.75	13794.13
915.93	13756.94
916.10	13701.57
916.27	13683.71
916.45	13654.30
916.62	13534.70
916.79	13635.29
916.97	13494.39
917.14	13478.50
917.31	13366.85
917.49	13389.05
917.66	13388.06
917.83	13330.56
918.00	13331.87
918.18	13278.13
918.35	13179.33
918.52	13257.16
918.70	13159.67
918.87	13168.19
919.04	13194.33
919.21	13148.78
919.39	13059.24
919.56	13135.92
919.73	13002.96
919.91	13075.54
920.08	13055.72
920.25	12924.73
920.42	13074.48
920.60	12925.88
920.77	12798.99
920.94	12873.20
921.11	12719.44
921.29	12796.36
921.46	12566.83
921.63	12709.12
921.81	12597.79
921.98	12587.47
922.15	12508.34
922.32	12584.52
922.50	12420.52
922.67	12441.82
922.84	12358.67
923.01	12277.24
923.19	12287.65
923.36	12289.86
923.53	12094.48
923.70	12179.27
923.87	12124.06
924.05	12159.61
924.22	12014.78
924.39	12112.26
924.56	11963.50
924.74	12025.10
924.91	12041.73
925.08	11972.92
925.25	11928.03
925.43	11901.16
925.60	11821.04
925.77	11913.77
925.94	11800.15
926.11	11781.23
926.29	11728.14
926.46	11726.34
926.63	11700.05
926.80	11662.69
926.97	11532.03
927.15	11607.07
927.32	11444.30
927.49	11453.96
927.66	11490.09
927.83	11485.42
928.01	11391.13
928.18	11384.41
928.35	11265.47
928.52	11383.27
928.69	11223.77
928.87	11228.03
929.04	11251.79
929.21	11303.15
929.38	11160.12
929.55	11247.28
929.72	11122.52
929.90	11154.22
930.07	11112.28
930.24	11010.62
930.41	11007.18
930.58	10939.51
930.75	10988.91
930.93	10930.34
931.10	10874.22
931.27	10762.57
931.44	10743.97
931.61	10734.47
931.78	10765.52
931.95	10695.15
932.13	10653.62
932.30	10724.64
932.47	10570.22
932.64	10613.48
932.81	10576.28
932.98	10570.06
933.15	10515.34
933.33	10422.77
933.50	10465.04
933.67	10396.31
933.84	10408.92
934.01	10383.04
934.18	10323.48
934.35	10368.05
934.52	10271.55
934.70	10318.49
934.87	10260.57
935.04	10201.75
935.21	10218.79
935.38	10158.09
935.55	10138.76
935.72	10216.91
935.89	10082.81
936.06	10093.62
936.24	10028.90
936.41	10106.81
936.58	9986.80
936.75	9968.53
936.92	9944.94
937.09	9946.74
937.26	9865.15
937.43	9884.07
937.60	9898.00
937.77	9824.93
937.94	9834.59
938.12	9794.45
938.29	9710.24
938.46	9777.41
938.63	9643.80
938.80	9696.07
938.97	9641.26
939.14	9591.29
939.31	9557.05
939.48	9592.60
939.65	9464.97
939.82	9447.28
939.99	9480.70
940.16	9430.24
940.33	9385.60
940.50	9359.30
940.67	9322.68
940.85	9353.40
941.02	9323.66
941.19	9355.53
941.36	9319.98
941.53	9341.44
941.70	9338.25
941.87	9236.83
942.04	9226.84
942.21	9242.56
942.38	9210.53
942.55	9122.72
942.72	9150.49
942.89	9138.45
943.06	9091.92
943.23	9068.24
943.40	9025.48
943.57	9050.71
943.74	9030.72
943.91	9017.62
944.08	8993.29
944.25	9066.28
944.42	8923.49
944.59	8931.52
944.76	8937.75
944.93	8911.86
945.10	8831.33
945.27	8822.57
945.44	8727.21
945.61	8745.73
945.78	8698.54
945.95	8726.80
946.12	8649.56
946.29	8695.27
946.46	8659.30
946.63	8610.48
946.80	8627.52
946.97	8599.83
947.14	8548.79
947.31	8606.63
947.48	8530.36
947.65	8524.14
947.82	8495.38
947.99	8498.58
948.16	8405.60
948.33	8474.17
948.50	8380.70
948.67	8380.45
948.84	8327.45
949.01	8315.41
949.18	8306.07
949.35	8339.41
949.52	8255.61
949.68	8260.77
949.85	8247.25
950.02	8212.52
950.19	8215.47
950.36	8163.78
950.53	8152.14
950.70	8146.66
950.87	8074.98
951.04	8142.64
951.21	8034.43
951.38	8028.94
951.55	8007.72
951.72	7993.14
951.89	7966.84
952.06	8019.11
952.23	7936.70
952.39	7952.59
952.56	7890.99
952.73	7918.68
952.90	7879.27
953.07	7908.11
953.24	7842.08
953.41	7838.07
953.58	7759.26
953.75	7801.12
953.92	7753.86
954.09	7714.37
954.25	7692.74
954.42	7696.59
954.59	7687.75
954.76	7668.74
954.93	7628.93
955.10	7664.65
955.27	7598.54
955.44	7615.49
955.61	7559.95
955.77	7638.02
955.94	7576.09
956.11	7615.33
956.28	7594.03
956.45	7564.87
956.62	7570.52
956.79	7585.59
956.96	7541.52
957.12	7550.70
957.29	7490.73
957.46	7458.87
957.63	7431.01
957.80	7404.96
957.97	7345.57
958.14	7444.53
958.30	7331.97
958.47	7339.84
958.64	7335.50
958.81	7340.25
958.98	7267.91
959.15	7313.05
959.32	7320.59
959.48	7280.45
959.65	7238.26
959.82	7234.24
959.99	7210.57
960.16	7264.47
960.33	7237.60
960.49	7179.93
960.66	7148.48
960.83	7175.26
961.00	7154.62
961.17	7142.25
961.33	7113.91
961.50	7093.59
961.67	7055.91
961.84	7050.50
962.01	7032.81
962.18	7055.50
962.34	7002.99
962.51	6965.96
962.68	6904.93
962.85	6970.79
963.02	6876.26
963.18	6932.05
963.35	6848.16
963.52	6877.73
963.69	6863.40
963.86	6874.79
964.02	6794.59
964.19	6824.81
964.36	6768.13
964.53	6794.10
964.69	6729.54
964.86	6809.58
965.03	6727.25
965.20	6748.71
965.37	6685.72
965.53	6666.38
965.70	6684.73
965.87	6701.20
966.04	6620.67
966.20	6643.28
966.37	6621.33
966.54	6563.08
966.71	6620.76
966.87	6572.75
967.04	6564.40
967.21	6549.24
967.38	6491.90
967.54	6493.95
967.71	6495.58
967.88	6472.32
968.05	6465.03
968.21	6390.65
968.38	6390.73
968.55	6390.81
968.72	6390.15
968.88	6328.55
969.05	6378.69
969.22	6334.20
969.39	6352.06
969.55	6341.41
969.72	6279.07
969.89	6289.39
970.05	6318.64
970.22	6317.49
970.39	6277.68
970.56	6314.05
970.72	6278.25
970.89	6288.33
971.06	6273.26
971.22	6242.86
971.39	6256.05
971.56	6269.49
971.73	6213.95
971.89	6232.95
972.06	6188.63
972.23	6237.95
972.39	6140.63
972.56	6192.65
972.73	6119.99
972.89	6163.81
973.06	6146.77
973.23	6136.45
973.39	6104.34
973.56	6097.29
973.73	6069.69
973.89	6090.09
974.06	6041.59
974.23	6039.38
974.39	6050.60
974.56	6031.35
974.73	5983.18
974.89	5982.85
975.06	5974.66
975.23	6002.84
975.39	5932.64
975.56	5938.95
975.73	5899.87
975.89	5881.52
976.06	5876.11
976.23	5861.53
976.39	5874.56
976.56	5843.51
976.73	5831.80
976.89	5823.36
977.06	5789.03
977.23	5756.59
977.39	5783.71
977.56	5789.69
977.72	5744.31
977.89	5772.98
978.06	5732.84
978.22	5733.90
978.39	5724.32
978.56	5716.54
978.72	5680.08
978.89	5702.36
979.05	5699.99
979.22	5647.81
979.39	5648.05
979.55	5655.67
979.72	5614.63
979.88	5664.19
980.05	5607.26
980.22	5629.29
980.38	5600.54
980.55	5566.62
980.71	5544.67
980.88	5580.96
981.05	5555.73
981.21	5559.99
981.38	5518.21
981.54	5516.98
981.71	5489.05
981.88	5494.04
982.04	5501.99
982.21	5489.29
982.37	5445.88
982.54	5451.37
982.70	5447.92
982.87	5455.13
983.04	5395.25
983.20	5448.01
983.37	5374.77
983.53	5419.33
983.70	5406.39
983.86	5404.92
984.03	5385.09
984.20	5397.95
984.36	5369.04
984.53	5378.70
984.69	5320.21
984.86	5290.89
985.02	5286.54
985.19	5281.88
985.35	5258.04
985.52	5251.89
985.68	5229.45
985.85	5225.35
986.02	5209.70
986.18	5230.18
986.35	5226.99
986.51	5226.99
986.68	5203.72
986.84	5210.44
987.01	5198.65
987.17	5205.45
987.34	5192.67
987.50	5187.10
987.67	5128.61
987.83	5179.80
988.00	5172.19
988.16	5118.45
988.33	5115.25
988.49	5127.62
988.66	5069.21
988.82	5104.52
988.99	5071.18
989.15	5109.19
989.32	5070.61
989.48	5071.18
989.65	5037.27
989.81	5050.70
989.98	5014.08
990.14	5010.07
990.31	5027.93
990.47	5015.56
990.64	5013.26
990.80	4992.87
990.97	4961.25
991.13	4987.79
991.30	4971.32
991.46	4949.12
991.63	4927.25
991.79	4939.05
991.95	4887.93
992.12	4922.99
992.28	4889.65
992.45	4882.60
992.61	4870.15
992.78	4870.73
992.94	4849.43
993.11	4870.40
993.27	4876.79
993.44	4854.26
993.60	4852.46
993.76	4859.58
993.93	4831.40
994.09	4861.22
994.26	4811.50
994.42	4830.75
994.59	4804.94
994.75	4845.90
994.91	4794.29
995.08	4764.89
995.24	4771.03
995.41	4778.98
995.57	4748.26
995.74	4728.02
995.90	4733.67
996.06	4744.49
996.23	4718.77
996.39	4722.70
996.56	4689.77
996.72	4718.27
996.88	4690.34
997.05	4716.96
997.21	4669.94
997.38	4696.24
997.54	4634.55
997.70	4638.65
997.87	4663.55
998.03	4671.50
998.20	4623.25
998.36	4612.35
998.52	4609.16
998.69	4620.14
998.85	4586.47
999.02	4596.22
999.18	4580.98
999.34	4597.03
999.51	4571.48
999.67	4583.68
999.83	4558.37
1000.00	4561.73
1000.16	4512.41
1000.33	4517.00
1000.49	4519.38
1000.65	4523.72
1000.82	4527.98
1000.98	4505.37
1001.14	4510.12
1001.31	4527.98
1001.47	4506.92
1001.63	4512.99
1001.80	4465.39
1001.96	4446.14
1002.12	4449.91
1002.29	4479.15
1002.45	4442.95
1002.61	4445.57
1002.78	4424.43
1002.94	4441.72
1003.10	4412.14
1003.27	4402.40
1003.43	4407.23
1003.59	4409.60
1003.76	4391.34
1003.92	4382.74
1004.08	4380.44
1004.25	4397.07
1004.41	4371.18
1004.57	4378.64
1004.74	4334.98
1004.90	4363.65
1005.06	4357.34
1005.23	4325.56
1005.39	4313.68
1005.55	4339.24
1005.71	4323.51
1005.88	4320.89
1006.04	4325.23
1006.20	4320.15
1006.37	4267.31
1006.53	4280.83
1006.69	4267.80
1006.85	4289.84
1007.02	4238.56
1007.18	4267.23
1007.34	4232.82
1007.51	4264.94
1007.67	4244.05
1007.83	4220.62
1007.99	4206.45
1008.16	4240.77
1008.32	4207.67
1008.48	4239.62
1008.64	4195.39
1008.81	4212.34
1008.97	4193.42
1009.13	4199.40
1009.29	4172.86
1009.46	4192.27
1009.62	4181.05
1009.78	4156.48
1009.95	4156.07
1010.11	4168.52
1010.27	4138.29
1010.43	4158.61
1010.59	4158.36
1010.76	4139.27
1010.92	4138.54
1011.08	4126.90
1011.24	4099.30
1011.41	4154.51
1011.57	4095.94
1011.73	4123.95
1011.89	4092.66
1012.06	4119.28
1012.22	4070.05
1012.38	4091.60
1012.54	4080.86
1012.70	4060.79
1012.87	4040.72
1013.03	4082.01
1013.19	4056.94
1013.35	4050.23
1013.51	4024.18
1013.68	4062.60
1013.84	4024.18
1014.00	4049.82
1014.16	4017.62
1014.32	4019.75
1014.49	4002.30
1014.65	4029.75
1014.81	3995.18
1014.97	3994.11
1015.13	3984.69
1015.30	4015.08
1015.46	3981.17
1015.62	3983.63
1015.78	3977.32
1015.94	3980.35
1016.10	3966.59
1016.27	3971.34
1016.43	3939.39
1016.59	3959.62
1016.75	3925.79
1016.91	3961.92
1017.07	3939.15
1017.24	3936.44
1017.40	3932.59
1017.56	3933.98
1017.72	3912.52
1017.88	3913.59
1018.04	3909.33
1018.21	3919.48
1018.37	3889.83
1018.53	3929.48
1018.69	3894.75
1018.85	3877.79
1019.01	3883.44
1019.17	3891.22
1019.34	3861.90
1019.50	3843.30
1019.66	3848.22
1019.82	3856.16
1019.98	3837.57
1020.14	3864.52
1020.30	3863.62
1020.46	3855.51
1020.63	3836.91
1020.79	3816.59
1020.95	3828.06
1021.11	3831.09
1021.27	3816.10
1021.43	3816.76
1021.59	3808.81
1021.75	3814.87
1021.91	3776.29
1022.07	3788.91
1022.24	3789.89
1022.40	3794.72
1022.56	3770.56
1022.72	3785.88
1022.88	3770.39
1023.04	3777.60
1023.20	3753.93
1023.36	3759.09
1023.52	3758.76
1023.68	3746.88
1023.84	3724.76
1024.01	3773.75
1024.17	3737.71
1024.33	3748.77
1024.49	3724.93
1024.65	3726.89
1024.81	3725.17
1024.97	3737.95
1025.13	3720.91
1025.29	3726.73
1025.45	3707.64
1025.61	3729.19
1025.77	3691.34
1025.93	3704.28
1026.09	3681.59
1026.25	3721.81
1026.41	3687.74
1026.57	3711.74
1026.73	3704.86
1026.90	3695.85
1027.06	3681.59
1027.22	3681.26
1027.38	3689.54
1027.54	3700.35
1027.70	3693.72
1027.86	3682.33
1028.02	3664.39
1028.18	3677.33
1028.34	3664.88
1028.50	3700.84
1028.66	3650.22
1028.82	3651.36
1028.98	3654.72
1029.14	3652.18
1029.30	3640.80
1029.46	3655.13
1029.62	3634.00
1029.78	3625.72
1029.94	3638.99
1030.10	3649.97
1030.26	3608.77
1030.42	3623.84
1030.58	3615.57
1030.74	3631.13
1030.90	3622.86
1031.06	3604.18
1031.22	3590.33
1031.38	3614.91
1031.54	3600.90
1031.70	3602.13
1031.86	3595.82
1032.02	3591.07
1032.18	3571.08
1032.34	3584.35
1032.50	3587.80
1032.66	3580.01
1032.82	3566.17
1032.98	3585.01
1033.14	3561.83
1033.30	3592.30
1033.45	3553.23
1033.61	3576.49
1033.77	3557.98
1033.93	3571.41
1034.09	3547.08
1034.25	3561.09
1034.41	3542.00
1034.57	3551.59
1034.73	3558.55
1034.89	3551.42
1035.05	3529.72
1035.21	3558.71
1035.37	3524.39
1035.53	3508.74
1035.69	3510.63
1035.85	3541.84
1036.01	3519.88
1036.16	3535.37
1036.32	3525.46
1036.48	3518.74
1036.64	3515.63
1036.80	3525.21
1036.96	3500.72
1037.12	3494.74
1037.28	3500.47
1037.44	3482.69
1037.60	3487.53
1037.76	3496.62
1037.91	3481.46
1038.07	3508.99
1038.23	3484.58
1038.39	3495.88
1038.55	3489.17
1038.71	3499.41
1038.87	3475.16
1039.03	3499.73
1039.19	3480.32
1039.35	3497.19
1039.50	3465.98
1039.66	3491.05
1039.82	3442.55
1039.98	3478.60
1040.14	3458.04
1040.30	3462.62
1040.46	3450.25
1040.62	3445.58
1040.77	3442.72
1040.93	3481.38
1041.09	3429.45
1041.25	3465.90
1041.41	3444.77
1041.57	3471.06
1041.73	3471.06
1041.88	3471.06

