SpectraSuite Data File
++++++++++++++++++++++++++++++++++++
Date: Tue Sep 20 12:05:52 EDT 2022
User: Laboratoire
Dark Spectrum Present: No
Reference Spectrum Present: No
Number of Sampled Component Spectra: 1
Spectrometers: FLMT00174
Integration Time (usec): 15000 (FLMT00174)
Spectra Averaged: 25 (FLMT00174)
Boxcar Smoothing: 0 (FLMT00174)
Correct for Electrical Dark: No (FLMT00174)
Strobe/Lamp Enabled: No (FLMT00174)
Correct for Detector Non-linearity: No (FLMT00174)
Correct for Stray Light: No (FLMT00174)
Number of Pixels in Processed Spectrum: 3648
>>>>>Begin Processed Spectral Data<<<<<
345.74	3172.39
345.96	3172.39
346.18	3172.39
346.39	3174.27
346.61	3219.98
346.83	3215.80
347.05	3241.85
347.27	3225.31
347.49	3220.88
347.71	3215.64
347.93	3222.27
348.15	3226.37
348.36	3229.07
348.58	3214.90
348.80	3216.21
349.02	3223.34
349.24	3241.12
349.46	3312.71
349.68	3345.64
349.90	3348.84
350.11	3334.58
350.33	3354.74
350.55	3320.33
350.77	3331.23
350.99	3330.24
351.21	3346.30
351.43	3312.96
351.65	3353.92
351.86	3338.60
352.08	3337.94
352.30	3309.35
352.52	3329.51
352.74	3324.84
352.96	3320.74
353.18	3357.85
353.39	3344.09
353.61	3338.19
353.83	3364.73
354.05	3348.51
354.27	3351.46
354.49	3342.04
354.70	3334.34
354.92	3336.80
355.14	3342.86
355.36	3338.52
355.58	3328.11
355.80	3345.32
356.02	3337.62
356.23	3333.52
356.45	3338.11
356.67	3345.56
356.89	3357.44
357.11	3360.14
357.33	3354.82
357.54	3335.40
357.76	3343.19
357.98	3333.93
358.20	3366.12
358.42	3330.08
358.63	3332.29
358.85	3358.83
359.07	3356.70
359.29	3313.53
359.51	3339.42
359.73	3350.07
359.94	3341.30
360.16	3336.96
360.38	3340.32
360.60	3331.96
360.82	3359.73
361.03	3363.09
361.25	3358.01
361.47	3367.27
361.69	3384.56
361.91	3339.42
362.12	3339.58
362.34	3344.66
362.56	3352.52
362.78	3330.90
363.00	3366.61
363.21	3321.48
363.43	3361.13
363.65	3326.47
363.87	3372.19
364.09	3358.42
364.30	3366.45
364.52	3352.52
364.74	3357.60
364.96	3352.77
365.17	3358.75
365.39	3365.06
365.61	3351.62
365.83	3358.34
366.05	3361.13
366.26	3352.28
366.48	3360.80
366.70	3374.48
366.92	3369.48
367.13	3352.20
367.35	3350.48
367.57	3382.43
367.79	3369.81
368.01	3349.74
368.22	3382.83
368.44	3363.09
368.66	3365.80
368.88	3373.99
369.09	3367.35
369.31	3352.77
369.53	3368.83
369.75	3354.65
369.96	3381.93
370.18	3370.38
370.40	3384.06
370.62	3363.01
370.83	3354.74
371.05	3391.11
371.27	3376.69
371.49	3340.89
371.70	3381.28
371.92	3369.07
372.14	3387.26
372.36	3357.52
372.57	3385.78
372.79	3390.04
373.01	3367.27
373.22	3366.86
373.44	3377.67
373.66	3342.12
373.88	3403.40
374.09	3363.99
374.31	3375.63
374.53	3362.52
374.75	3382.59
374.96	3397.25
375.18	3406.76
375.40	3390.86
375.61	3399.87
375.83	3382.75
376.05	3375.30
376.27	3415.60
376.48	3384.23
376.70	3384.64
376.92	3376.53
377.13	3388.49
377.35	3373.91
377.57	3387.34
377.79	3360.39
378.00	3374.64
378.22	3407.25
378.44	3388.08
378.65	3404.22
378.87	3395.45
379.09	3393.65
379.30	3388.73
379.52	3398.73
379.74	3376.53
379.96	3398.81
380.17	3384.96
380.39	3385.21
380.61	3397.91
380.82	3401.43
381.04	3398.97
381.26	3412.57
381.47	3406.51
381.69	3427.56
381.91	3400.28
382.12	3418.88
382.34	3418.96
382.56	3415.77
382.77	3424.94
382.99	3427.23
383.21	3416.99
383.42	3428.05
383.64	3433.38
383.86	3429.28
384.07	3443.13
384.29	3433.87
384.51	3423.47
384.72	3440.01
384.94	3423.06
385.16	3446.81
385.37	3438.05
385.59	3437.72
385.81	3466.97
386.02	3440.34
386.24	3469.75
386.46	3426.74
386.67	3467.46
386.89	3472.62
387.11	3475.40
387.32	3470.65
387.54	3463.36
387.76	3477.04
387.97	3496.37
388.19	3490.56
388.40	3468.03
388.62	3462.38
388.84	3498.59
389.05	3484.33
389.27	3496.70
389.49	3497.60
389.70	3476.30
389.92	3492.44
390.14	3501.70
390.35	3526.52
390.57	3512.51
390.78	3500.06
391.00	3517.51
391.22	3511.28
391.43	3494.74
391.65	3515.22
391.86	3529.88
392.08	3551.92
392.30	3534.22
392.51	3551.83
392.73	3564.94
392.95	3542.33
393.16	3539.05
393.38	3567.48
393.59	3558.22
393.81	3560.93
394.03	3580.42
394.24	3572.15
394.46	3570.18
394.67	3571.00
394.89	3586.73
395.11	3598.94
395.32	3593.04
395.54	3630.15
395.75	3623.10
395.97	3582.06
396.19	3613.35
396.40	3630.31
396.62	3628.10
396.83	3623.10
397.05	3618.52
397.26	3628.18
397.48	3647.27
397.70	3644.81
397.91	3676.02
398.13	3652.35
398.34	3661.44
398.56	3668.24
398.78	3670.62
398.99	3738.12
399.21	3685.61
399.42	3716.08
399.64	3685.36
399.85	3711.66
400.07	3719.03
400.29	3741.72
400.50	3709.85
400.72	3755.97
400.93	3718.70
401.15	3720.09
401.36	3748.44
401.58	3757.20
401.79	3754.66
402.01	3784.89
402.23	3773.10
402.44	3815.20
402.66	3808.24
402.87	3809.55
403.09	3799.97
403.30	3809.47
403.52	3807.83
403.73	3801.03
403.95	3838.88
404.16	3836.17
404.38	3863.12
404.60	3859.03
404.81	3878.20
405.03	3873.12
405.24	3901.79
405.46	3882.70
405.67	3892.70
405.89	3915.80
406.10	3903.10
406.32	3892.45
406.53	3933.74
406.75	3948.89
406.96	3942.42
407.18	3950.70
407.39	3931.36
407.61	3962.66
407.82	3957.82
408.04	3999.52
408.25	3965.44
408.47	4017.38
408.68	4017.05
408.90	4014.84
409.12	4025.98
409.33	4042.36
409.55	4023.44
409.76	4051.54
409.98	4034.17
410.19	4073.57
410.41	4074.72
410.62	4114.37
410.84	4070.95
411.05	4121.09
411.27	4140.09
411.48	4122.23
411.70	4130.83
411.91	4161.06
412.12	4163.93
412.34	4145.33
412.55	4178.10
412.77	4169.50
412.98	4186.38
413.20	4170.24
413.41	4215.70
413.63	4208.90
413.84	4208.58
414.06	4247.08
414.27	4266.41
414.49	4287.30
414.70	4274.85
414.92	4285.33
415.13	4280.66
415.35	4315.56
415.56	4331.86
415.78	4328.91
415.99	4322.85
416.21	4347.43
416.42	4364.06
416.63	4392.32
416.85	4379.29
417.06	4387.98
417.28	4395.10
417.49	4420.17
417.71	4432.21
417.92	4425.09
418.14	4456.38
418.35	4476.45
418.57	4489.31
418.78	4500.37
418.99	4468.34
419.21	4518.88
419.42	4522.49
419.64	4533.14
419.85	4529.70
420.07	4594.25
420.28	4588.43
420.50	4587.37
420.71	4616.69
420.92	4615.30
421.14	4638.32
421.35	4640.86
421.57	4629.97
421.78	4687.72
422.00	4678.71
422.21	4717.95
422.42	4733.76
422.64	4713.28
422.85	4776.52
423.07	4791.92
423.28	4780.94
423.50	4794.79
423.71	4843.45
423.92	4866.87
424.14	4847.46
424.35	4862.29
424.57	4887.93
424.78	4943.14
424.99	4938.80
425.21	4945.11
425.42	4959.85
425.64	4957.07
425.85	4974.93
426.06	4996.80
426.28	5024.65
426.49	5055.78
426.71	5067.00
426.92	5050.78
427.13	5109.60
427.35	5153.51
427.56	5159.98
427.78	5146.46
427.99	5172.35
428.20	5231.25
428.42	5250.91
428.63	5257.46
428.84	5214.70
429.06	5265.74
429.27	5310.55
429.49	5308.33
429.70	5406.80
429.91	5354.21
430.13	5369.61
430.34	5409.83
430.56	5427.44
430.77	5448.50
430.98	5431.79
431.20	5481.43
431.41	5541.07
431.62	5569.57
431.84	5514.52
432.05	5601.44
432.26	5588.42
432.48	5556.22
432.69	5678.44
432.91	5660.91
433.12	5678.03
433.33	5679.84
433.55	5775.44
433.76	5761.10
433.97	5755.28
434.19	5770.27
434.40	5864.73
434.61	5856.45
434.83	5896.84
435.04	5873.82
435.25	5930.10
435.47	5947.87
435.68	5902.90
435.89	6023.08
436.11	6032.50
436.32	6027.58
436.53	6033.97
436.75	6051.42
436.96	6081.81
437.17	6045.36
437.39	6102.78
437.60	6164.80
437.81	6178.56
438.03	6213.95
438.24	6214.03
438.45	6300.53
438.67	6280.14
438.88	6333.38
439.09	6409.24
439.31	6373.36
439.52	6408.42
439.73	6402.85
439.94	6376.80
440.16	6441.35
440.37	6439.71
440.58	6517.05
440.80	6548.99
441.01	6521.88
441.22	6719.06
441.44	6645.99
441.65	6626.74
441.86	6644.18
442.08	6710.87
442.29	6691.04
442.50	6750.27
442.71	6743.31
442.93	6833.58
443.14	6801.47
443.35	6905.10
443.57	6813.92
443.78	6937.62
443.99	6958.18
444.20	6881.83
444.42	6984.23
444.63	7027.97
444.84	7036.17
445.06	7115.63
445.27	7073.19
445.48	7051.73
445.69	7126.69
445.91	7157.24
446.12	7109.24
446.33	7218.02
446.54	7298.47
446.76	7242.11
446.97	7310.35
447.18	7320.83
447.39	7351.88
447.61	7367.94
447.82	7451.41
448.03	7417.99
448.25	7482.29
448.46	7572.90
448.67	7606.48
448.88	7510.56
449.10	7651.46
449.31	7669.89
449.52	7641.22
449.73	7721.99
449.95	7825.86
450.16	7736.57
450.37	7874.44
450.58	8047.53
450.79	7836.18
451.01	7920.31
451.22	7848.14
451.43	7957.10
451.64	8047.78
451.86	8016.16
452.07	8089.64
452.28	8164.43
452.49	8260.85
452.71	8152.80
452.92	8146.98
453.13	8262.08
453.34	8279.12
453.55	8420.02
453.77	8488.01
453.98	8492.19
454.19	8418.05
454.40	8518.81
454.62	8625.55
454.83	8512.50
455.04	8692.32
455.25	8564.61
455.46	8897.52
455.68	8686.34
455.89	8745.97
456.10	8802.66
456.31	8852.96
456.52	8898.92
456.74	8923.57
456.95	9128.37
457.16	9060.46
457.37	9139.43
457.58	9149.91
457.80	9100.11
458.01	9121.00
458.22	9540.18
458.43	9295.16
458.64	9431.06
458.86	9269.60
459.07	9439.01
459.28	9428.52
459.49	9601.45
459.70	9784.05
459.91	9721.95
460.13	9680.34
460.34	9774.79
460.55	9744.89
460.76	9915.12
460.97	9950.51
461.19	9958.62
461.40	10220.02
461.61	10047.17
461.82	10152.03
462.03	10213.55
462.24	10226.16
462.46	10240.01
462.67	10262.37
462.88	10433.34
463.09	10407.04
463.30	10609.54
463.51	10465.69
463.72	10698.59
463.94	10777.15
464.15	10757.16
464.36	10618.31
464.57	11010.04
464.78	11011.93
464.99	11059.77
465.20	10952.21
465.42	11208.45
465.63	11227.54
465.84	11203.62
466.05	11394.57
466.26	11458.47
466.47	11601.42
466.68	11462.81
466.90	11660.07
467.11	11633.45
467.32	11796.46
467.53	11966.61
467.74	11739.37
467.95	11894.27
468.16	12102.27
468.37	12288.22
468.59	12273.89
468.80	12433.46
469.01	12265.69
469.22	12485.15
469.43	12770.81
469.64	12605.41
469.85	12797.67
470.06	12868.04
470.28	13060.47
470.49	12821.02
470.70	13057.52
470.91	13339.90
471.12	13197.44
471.33	13513.24
471.54	13400.51
471.75	13411.82
471.96	13851.23
472.17	13772.02
472.39	14100.92
472.60	13851.31
472.81	14203.07
473.02	14116.73
473.23	14444.90
473.44	14499.21
473.65	14435.48
473.86	14619.14
474.07	14681.31
474.28	14782.16
474.49	15162.42
474.71	15154.89
474.92	15351.00
475.13	15281.37
475.34	15342.32
475.55	15477.81
475.76	15561.53
475.97	15969.49
476.18	15927.46
476.39	16200.83
476.60	16339.51
476.81	16399.89
477.02	16630.98
477.23	16686.11
477.44	16592.81
477.65	16887.96
477.87	17136.58
478.08	17196.63
478.29	17207.12
478.50	17632.60
478.71	17515.79
478.92	17716.40
479.13	17808.15
479.34	17911.29
479.55	18084.55
479.76	18108.47
479.97	18229.38
480.18	18750.06
480.39	18446.96
480.60	18890.63
480.81	19018.50
481.02	19106.40
481.23	19181.85
481.44	19500.02
481.65	19735.46
481.86	19991.37
482.07	19585.71
482.28	20513.85
482.49	20248.59
482.71	20401.13
482.92	20608.46
483.13	20879.37
483.34	20747.73
483.55	20920.82
483.76	21020.76
483.97	21352.78
484.18	21412.58
484.39	21609.35
484.60	21506.70
484.81	22017.14
485.02	21913.27
485.23	22302.05
485.44	22419.77
485.65	22669.54
485.86	22533.14
486.07	22952.65
486.28	22916.03
486.49	23167.44
486.70	23371.42
486.91	23685.82
487.12	23593.09
487.33	23581.79
487.54	24110.08
487.75	24145.55
487.96	24293.41
488.17	24275.56
488.38	24620.02
488.59	24679.83
488.80	24894.53
489.01	25003.16
489.22	25305.28
489.43	25266.04
489.64	25221.96
489.85	25850.85
490.06	25409.97
490.26	25886.16
490.47	25782.86
490.68	26240.30
490.89	26578.95
491.10	26286.01
491.31	26640.14
491.52	26945.78
491.73	26883.28
491.94	26905.23
492.15	27181.05
492.36	27364.96
492.57	27396.99
492.78	27532.73
492.99	27711.15
493.20	28011.54
493.41	28001.47
493.62	28158.34
493.83	28252.88
494.04	28401.80
494.25	28623.48
494.46	28738.74
494.67	28665.09
494.88	28997.11
495.08	28980.56
495.29	29101.31
495.50	29463.31
495.71	29364.60
495.92	29632.06
496.13	29700.46
496.34	29667.61
496.55	29843.82
496.76	30358.60
496.97	29937.21
497.18	30461.73
497.39	30408.32
497.60	30923.18
497.81	30526.69
498.02	30807.02
498.22	30595.75
498.43	31136.17
498.64	31299.43
498.85	31272.65
499.06	31417.89
499.27	31881.47
499.48	31205.39
499.69	31695.51
499.90	31830.76
500.11	32083.56
500.32	32481.11
500.52	32099.29
500.73	32782.16
500.94	32749.07
501.15	32805.43
501.36	32859.74
501.57	32714.66
501.78	32967.30
501.99	33301.04
502.20	33196.43
502.41	33391.48
502.61	33455.86
502.82	33821.55
503.03	33514.60
503.24	34152.99
503.45	33814.50
503.66	34255.39
503.87	34204.93
504.08	34464.94
504.28	34355.33
504.49	34549.48
504.70	34704.71
504.91	34943.92
505.12	34734.53
505.33	35308.95
505.54	35236.12
505.75	35353.35
505.95	35655.22
506.16	35463.94
506.37	35361.05
506.58	35944.23
506.79	35424.53
507.00	36054.74
507.21	35756.22
507.41	35911.30
507.62	36107.57
507.83	36641.93
508.04	36229.71
508.25	36805.85
508.46	36558.04
508.67	37096.09
508.87	36807.57
509.08	37276.80
509.29	37121.56
509.50	37328.49
509.71	37477.25
509.92	37678.53
510.12	37466.93
510.33	37735.87
510.54	37584.90
510.75	37905.20
510.96	38175.61
511.17	38386.96
511.37	38329.54
511.58	38597.17
511.79	38330.19
512.00	38284.89
512.21	38895.10
512.42	38905.67
512.62	39054.03
512.83	39265.79
513.04	39129.47
513.25	39565.12
513.46	38761.58
513.66	39890.99
513.87	39597.97
514.08	39941.86
514.29	39646.30
514.50	39774.58
514.71	40210.97
514.91	39965.95
515.12	40028.86
515.33	40327.13
515.54	40222.11
515.75	40825.77
515.95	40534.38
516.16	40622.69
516.37	41160.81
516.58	41086.76
516.78	40876.72
516.99	41328.26
517.20	41371.02
517.41	41414.60
517.62	41609.65
517.82	41524.53
518.03	42110.91
518.24	42538.44
518.45	41781.76
518.66	42326.27
518.86	42033.58
519.07	42666.40
519.28	41958.54
519.49	42760.11
519.69	42930.34
519.90	42946.72
520.11	43151.44
520.32	43011.28
520.52	43486.08
520.73	43130.71
520.94	43669.74
521.15	43649.67
521.36	43176.18
521.56	44152.24
521.77	43400.23
521.98	44182.71
522.19	43711.60
522.39	44174.03
522.60	43899.44
522.81	44191.07
523.02	44036.41
523.22	44442.31
523.43	44735.09
523.64	44592.72
523.84	44732.63
524.05	45280.67
524.26	45224.39
524.47	44909.42
524.67	45082.26
524.88	45398.39
525.09	45770.30
525.30	45506.77
525.50	45530.28
525.71	45642.59
525.92	45764.48
526.13	46110.92
526.33	45879.33
526.54	45670.11
526.75	46078.07
526.95	46555.57
527.16	45819.29
527.37	46557.29
527.58	46756.76
527.78	46661.17
527.99	46979.99
528.20	47208.55
528.40	46807.55
528.61	46771.18
528.82	47343.06
529.03	47199.45
529.23	47165.87
529.44	47567.76
529.65	47568.50
529.85	47600.53
530.06	47550.39
530.27	47666.31
530.47	47322.50
530.68	48283.40
530.89	47430.63
531.09	48168.22
531.30	48175.84
531.51	47935.17
531.72	48457.32
531.92	48512.28
532.13	48817.19
532.34	48613.94
532.54	48624.02
532.75	48859.05
532.96	48726.67
533.16	48956.20
533.37	49157.80
533.58	48925.65
533.78	49407.49
533.99	49502.27
534.20	49067.77
534.40	49520.54
534.61	49651.45
534.82	49747.13
535.02	49809.71
535.23	49803.81
535.44	50082.91
535.64	49962.08
535.85	50267.23
536.06	50217.09
536.26	50200.55
536.47	50272.64
536.68	50953.71
536.88	50264.36
537.09	50931.51
537.29	50353.41
537.50	51256.56
537.71	50702.55
537.91	50987.62
538.12	51133.11
538.33	50853.11
538.53	51258.61
538.74	51342.49
538.95	51313.90
539.15	51165.88
539.36	51498.14
539.56	51892.74
539.77	51461.36
539.98	51613.15
540.18	51921.25
540.39	51653.29
540.60	52005.14
540.80	52279.15
541.01	52207.64
541.21	52142.27
541.42	52355.83
541.63	52229.51
541.83	52623.13
542.04	52617.07
542.25	52551.12
542.45	52904.77
542.66	52818.34
542.86	53047.14
543.07	51998.91
543.28	53153.64
543.48	52893.71
543.69	53258.98
543.89	52944.25
544.10	53743.29
544.31	53510.88
544.51	53336.15
544.72	53533.41
544.92	53365.23
545.13	53877.72
545.33	53599.52
545.54	53539.39
545.75	53924.82
545.95	53674.64
546.16	53695.36
546.36	54365.71
546.57	53440.93
546.78	52725.20
546.98	53373.83
547.19	52604.70
547.39	53775.48
547.60	53961.03
547.80	54722.63
548.01	54807.49
548.22	54345.39
548.42	54602.94
548.63	55004.92
548.83	54574.68
549.04	54938.32
549.24	54496.78
549.45	54876.88
549.65	55139.92
549.86	54450.16
550.07	54780.54
550.27	55160.73
550.48	55358.32
550.68	55094.29
550.89	55051.86
551.09	55291.80
551.30	55200.70
551.50	55612.51
551.71	55255.84
551.91	55346.85
552.12	55551.73
552.33	55917.57
552.53	55306.46
552.74	56061.92
552.94	56066.59
553.15	55819.44
553.35	56118.36
553.56	55580.07
553.76	56385.58
553.97	55937.48
554.17	56105.91
554.38	56874.80
554.58	56116.31
554.79	56844.08
554.99	56234.27
555.20	56299.48
555.40	56865.13
555.61	56466.59
555.81	56194.87
556.02	57156.51
556.22	56859.89
556.43	56618.47
556.63	56893.72
556.84	56796.07
557.04	57426.27
557.25	56812.29
557.45	57207.55
557.66	57182.40
557.86	57042.89
558.07	57726.26
558.27	57158.89
558.48	57128.17
558.68	57259.65
558.89	57441.59
559.09	57538.50
559.30	57338.78
559.50	57629.43
559.71	57149.63
559.91	58027.23
560.12	57648.85
560.32	57642.21
560.53	58051.31
560.73	57647.45
560.94	58201.39
561.14	57719.79
561.35	58362.93
561.55	58029.19
561.76	58300.10
561.96	57538.17
562.17	58177.14
562.37	58385.87
562.57	58189.35
562.78	58182.55
562.98	58556.59
563.19	58506.04
563.39	58674.71
563.60	58668.00
563.80	58124.14
564.01	58832.65
564.21	58576.74
564.42	58421.67
564.62	58664.23
564.82	59044.82
565.03	58550.44
565.23	58599.02
565.44	58874.19
565.64	58678.15
565.85	58985.10
566.05	58737.22
566.25	59051.13
566.46	58639.08
566.66	59023.61
566.87	58963.72
567.07	59100.20
567.28	59160.90
567.48	59513.81
567.68	58771.46
567.89	59790.04
568.09	59237.41
568.30	59164.51
568.50	59674.70
568.71	59415.83
568.91	59640.45
569.11	59165.98
569.32	59270.18
569.52	59418.62
569.73	58886.97
569.93	59611.70
570.13	59395.60
570.34	59297.79
570.54	59922.25
570.75	59715.08
570.95	59594.42
571.15	59447.62
571.36	59961.33
571.56	59456.55
571.77	59403.71
571.97	59012.06
572.17	59950.52
572.38	59871.14
572.58	60079.70
572.79	59772.84
572.99	59920.13
573.19	59800.69
573.40	59733.02
573.60	59909.64
573.81	59813.14
574.01	60198.16
574.21	60128.36
574.42	60156.95
574.62	59954.61
574.82	60407.46
575.03	60101.08
575.23	60755.70
575.43	60276.06
575.64	60269.43
575.84	60716.21
576.05	60072.90
576.25	60258.29
576.45	60100.51
576.66	60782.73
576.86	60225.52
577.06	60566.05
577.27	60487.90
577.47	60636.59
577.67	60529.11
577.88	60086.58
578.08	60776.83
578.28	60964.43
578.49	60731.12
578.69	60912.16
578.89	60608.65
579.10	60671.73
579.30	61453.07
579.50	60861.04
579.71	60468.90
579.91	61071.74
580.11	60696.14
580.32	60632.16
580.52	60683.44
580.72	61298.82
580.93	60629.71
581.13	60855.06
581.33	61447.09
581.54	60994.98
581.74	61099.51
581.94	61167.26
582.15	61606.91
582.35	61171.60
582.55	61159.39
582.76	60841.38
582.96	61489.69
583.16	60912.16
583.37	61235.82
583.57	60946.16
583.77	61530.89
583.97	60531.32
584.18	61807.37
584.38	61506.97
584.58	61143.91
584.79	61570.54
584.99	61452.66
585.19	61346.08
585.40	61236.07
585.60	61562.84
585.80	61086.81
586.00	61520.74
586.21	61520.16
586.41	61612.73
586.61	61853.57
586.82	61672.20
587.02	61487.39
587.22	61848.25
587.42	61151.28
587.63	61925.99
587.83	61221.40
588.03	61720.45
588.23	61310.86
588.44	61574.39
588.64	61316.76
588.84	61725.61
589.05	61896.17
589.25	61801.55
589.45	61839.40
589.65	61620.27
589.86	61949.83
590.06	61932.46
590.26	61678.02
590.46	62063.69
590.67	61348.87
590.87	62080.65
591.07	62214.75
591.27	61771.65
591.48	62096.21
591.68	61633.13
591.88	62700.69
592.08	61743.31
592.29	62297.08
592.49	62127.51
592.69	62371.87
592.89	62037.32
593.10	62216.80
593.30	61982.59
593.50	62614.76
593.70	61461.02
593.90	62416.11
594.11	62197.63
594.31	62249.40
594.51	62436.83
594.71	62471.48
594.92	62569.38
595.12	62287.41
595.32	62341.89
595.52	62586.09
595.72	61762.23
595.93	62666.21
596.13	62323.62
596.33	61957.03
596.53	62610.50
596.73	62563.89
596.94	62316.99
597.14	62784.25
597.34	62402.51
597.54	62801.21
597.74	62317.40
597.95	62367.45
598.15	62457.80
598.35	62535.79
598.55	62655.88
598.75	62407.01
598.96	63063.43
599.16	62599.44
599.36	62746.49
599.56	62696.52
599.76	62514.49
599.97	63103.82
600.17	62839.96
600.37	63087.02
600.57	62055.09
600.77	63085.79
600.97	62601.16
601.18	63277.07
601.38	62762.87
601.58	63119.46
601.78	62880.01
601.98	62713.14
602.18	63099.15
602.39	63463.60
602.59	63217.03
602.79	63022.06
602.99	63088.99
603.19	63137.73
603.39	62834.88
603.60	62868.63
603.80	63062.04
604.00	62826.19
604.20	62916.14
604.40	63224.40
604.60	62852.73
604.80	62896.15
605.01	63161.49
605.21	62934.00
605.41	62816.03
605.61	62504.58
605.81	62912.29
606.01	63231.69
606.21	62678.74
606.42	63294.44
606.62	63010.26
606.82	63432.64
607.02	62956.12
607.22	63228.25
607.42	63487.93
607.62	62863.63
607.82	63040.49
608.03	63134.29
608.23	62781.06
608.43	62686.03
608.63	63328.76
608.83	63225.71
609.03	63075.64
609.23	63225.87
609.43	63360.22
609.63	63177.05
609.84	62886.57
610.04	63562.64
610.24	63395.53
610.44	63422.64
610.64	63062.53
610.84	63259.87
611.04	63688.31
611.24	63366.04
611.44	62581.01
611.64	63295.91
611.85	63309.02
612.05	63201.54
612.25	63415.93
612.45	63038.36
612.65	63309.60
612.85	63359.32
613.05	63000.76
613.25	63581.89
613.45	63249.14
613.65	63217.52
613.85	62711.10
614.05	63247.50
614.25	63396.10
614.46	63223.01
614.66	63089.81
614.86	62971.11
615.06	63144.04
615.26	63522.58
615.46	62627.29
615.66	63385.86
615.86	63326.39
616.06	62773.68
616.26	62900.49
616.46	63533.81
616.66	63029.68
616.86	63603.85
617.06	63148.62
617.26	63768.09
617.46	63344.08
617.66	63008.95
617.86	62812.92
618.07	63190.32
618.27	63039.59
618.47	63018.62
618.67	63028.45
618.87	63171.89
619.07	62930.72
619.27	62793.83
619.47	62791.54
619.67	63304.60
619.87	62784.74
620.07	63266.67
620.27	63105.37
620.47	62671.37
620.67	63120.44
620.87	63137.07
621.07	63308.86
621.27	63036.48
621.47	62591.33
621.67	63031.56
621.87	62632.21
622.07	63231.69
622.27	63123.15
622.47	62827.34
622.67	62911.47
622.87	62628.28
623.07	63089.73
623.27	63562.64
623.47	62501.63
623.67	63053.84
623.87	63307.87
624.07	63015.34
624.27	62602.23
624.47	62905.24
624.67	62845.28
624.87	62884.11
625.07	62420.20
625.27	62954.97
625.47	62479.59
625.67	62477.55
625.87	62898.85
626.07	62744.60
626.27	62864.20
626.47	62827.99
626.67	62626.72
626.87	62251.20
627.07	62679.23
627.27	62623.03
627.47	62782.78
627.67	62649.58
627.87	62547.91
628.07	62990.60
628.27	62745.50
628.47	62450.19
628.67	62978.73
628.86	62947.27
629.06	62545.46
629.26	62485.57
629.46	62880.42
629.66	62752.79
629.86	62126.69
630.06	62724.70
630.26	62525.39
630.46	62941.70
630.66	62150.44
630.86	62445.76
631.06	62318.95
631.26	62063.20
631.46	62535.95
631.66	62451.50
631.86	62078.11
632.06	62506.14
632.26	62249.65
632.45	62319.44
632.65	62495.90
632.85	62749.35
633.05	62403.82
633.25	62302.40
633.45	61820.72
633.65	62061.48
633.85	62630.49
634.05	61552.36
634.25	61949.50
634.45	61932.95
634.65	62352.29
634.84	61864.47
635.04	62147.82
635.24	61809.17
635.44	62089.99
635.64	61767.47
635.84	62130.21
636.04	61827.03
636.24	61748.06
636.44	61982.18
636.64	61202.64
636.84	62242.85
637.03	61475.84
637.23	61841.12
637.43	62027.89
637.63	61769.85
637.83	62081.47
638.03	62091.87
638.23	61441.77
638.43	61937.29
638.62	62160.03
638.82	61014.31
639.02	61762.07
639.22	61376.97
639.42	61708.33
639.62	61279.32
639.82	61377.54
640.02	61456.18
640.21	61641.65
640.41	60976.22
640.61	61610.03
640.81	61497.14
641.01	61394.99
641.21	61312.91
641.41	61926.07
641.61	61248.36
641.80	61403.51
642.00	61674.91
642.20	61687.93
642.40	60915.03
642.60	61459.95
642.80	61588.32
642.99	61069.77
643.19	61634.36
643.39	61019.07
643.59	61419.81
643.79	61228.37
643.99	61438.65
644.19	61039.87
644.38	60581.37
644.58	60876.36
644.78	60740.71
644.98	60577.11
645.18	60812.88
645.38	61071.74
645.57	60734.32
645.77	60915.44
645.97	60783.88
646.17	61279.98
646.37	61206.58
646.56	60932.15
646.76	60990.23
646.96	61024.39
647.16	60808.12
647.36	61004.98
647.55	60857.36
647.75	60902.74
647.95	60575.56
648.15	60854.82
648.35	60677.38
648.55	60719.98
648.74	60428.51
648.94	60495.36
649.14	60798.95
649.34	60255.99
649.54	60292.12
649.73	60457.59
649.93	60100.76
650.13	60455.87
650.33	60104.11
650.52	60511.82
650.72	60912.00
650.92	60475.21
651.12	60277.05
651.32	60504.37
651.51	60625.45
651.71	60614.30
651.91	60290.48
652.11	60140.57
652.30	59905.22
652.50	60426.63
652.70	60326.03
652.90	59895.96
653.10	60145.73
653.29	59931.43
653.49	60312.52
653.69	59678.30
653.89	59889.24
654.08	59746.54
654.28	60183.49
654.48	59819.77
654.68	60086.34
654.87	59741.05
655.07	59491.85
655.27	60172.11
655.47	59755.47
655.66	59871.96
655.86	59666.34
656.06	60129.26
656.26	59200.80
656.45	59637.42
656.65	59532.16
656.85	59340.14
657.04	59023.93
657.24	59099.05
657.44	59030.57
657.64	59503.90
657.83	58531.52
658.03	59241.18
658.23	59181.79
658.43	58998.95
658.62	59136.90
658.82	58906.95
659.02	58874.68
659.21	58997.15
659.41	58775.64
659.61	59199.49
659.81	58805.21
660.00	58734.76
660.20	59001.82
660.40	58729.44
660.59	58759.42
660.79	58124.38
660.99	58536.11
661.19	58409.79
661.38	58306.90
661.58	57546.20
661.78	58121.60
661.97	57941.05
662.17	58774.74
662.37	58097.19
662.56	58168.54
662.76	58228.50
662.96	58397.17
663.15	58563.63
663.35	58492.20
663.55	58204.09
663.74	58033.13
663.94	58432.56
664.14	57800.81
664.33	58139.46
664.53	57741.50
664.73	58224.16
664.93	57389.57
665.12	57964.48
665.32	57507.45
665.52	57587.73
665.71	57438.64
665.91	57589.70
666.10	57249.25
666.30	57717.66
666.50	57108.26
666.69	57175.36
666.89	57509.17
667.09	57887.88
667.28	57287.75
667.48	57080.90
667.68	57224.75
667.87	57247.36
668.07	56917.97
668.27	57514.34
668.46	57450.52
668.66	57054.12
668.86	57539.73
669.05	57003.82
669.25	57302.00
669.44	56896.34
669.64	56741.27
669.84	56782.23
670.03	57219.84
670.23	56845.39
670.43	56929.93
670.62	56830.31
670.82	56602.33
671.01	56867.18
671.21	56392.29
671.41	56494.53
671.60	56777.72
671.80	56981.04
672.00	56635.76
672.19	56883.48
672.39	56820.57
672.58	56453.08
672.78	56373.21
672.98	56743.64
673.17	56420.23
673.37	55607.68
673.56	55984.91
673.76	56263.11
673.96	56486.99
674.15	56045.29
674.35	56263.03
674.54	55983.19
674.74	55942.40
674.94	55919.62
675.13	56135.23
675.33	55560.25
675.52	56294.65
675.72	56015.39
675.91	55802.40
676.11	55949.28
676.31	55414.43
676.50	55648.47
676.70	55549.19
676.89	55677.23
677.09	55677.80
677.28	55636.84
677.48	54831.09
677.68	55281.31
677.87	55069.06
678.07	55054.48
678.26	55214.38
678.46	55213.48
678.65	55082.09
678.85	55452.93
679.04	54840.34
679.24	55224.21
679.44	55046.94
679.63	55297.70
679.83	54998.12
680.02	55105.68
680.22	54641.28
680.41	54694.86
680.61	54436.32
680.80	54278.30
681.00	54528.89
681.19	54443.37
681.39	54385.69
681.59	54341.29
681.78	54164.10
681.98	54728.61
682.17	53939.48
682.37	54370.70
682.56	53954.06
682.76	54393.15
682.95	54101.03
683.15	54170.90
683.34	53972.41
683.54	54131.83
683.73	54159.76
683.93	53551.02
684.12	54137.64
684.32	54334.33
684.51	53634.75
684.71	53965.61
684.90	53770.89
685.10	53696.02
685.29	53480.33
685.49	53775.73
685.68	53706.18
685.88	53613.69
686.07	53261.03
686.27	53741.49
686.46	53470.09
686.66	53245.88
686.85	53434.04
687.05	53132.50
687.24	53066.97
687.44	53343.44
687.63	53211.31
687.83	52762.06
688.02	53196.56
688.22	53345.82
688.41	52958.59
688.61	52966.45
688.80	53163.14
689.00	52756.17
689.19	52584.96
689.39	53144.95
689.58	53086.30
689.77	52859.14
689.97	52842.84
690.16	52546.62
690.36	52064.03
690.55	51994.57
690.75	52650.08
690.94	52154.96
691.14	52288.00
691.33	51669.68
691.53	52247.94
691.72	51935.67
691.91	51913.39
692.11	51895.53
692.30	52092.22
692.50	52098.52
692.69	51700.97
692.89	51758.15
693.08	51589.48
693.28	51456.53
693.47	51545.65
693.66	51488.56
693.86	51377.47
694.05	51294.98
694.25	51347.16
694.44	51541.15
694.64	51440.72
694.83	51271.55
695.02	51234.20
695.22	51410.73
695.41	50990.33
695.61	50773.57
695.80	50877.85
695.99	50861.63
696.19	50898.66
696.38	50845.49
696.58	50412.88
696.77	51241.49
696.96	51067.90
697.16	50836.15
697.35	50710.33
697.55	50623.00
697.74	50227.99
697.93	50741.95
698.13	50147.63
698.32	50484.40
698.52	50347.10
698.71	49892.94
698.90	50568.03
699.10	50075.87
699.29	50056.70
699.49	50422.63
699.68	49854.52
699.87	49834.70
700.07	50135.18
700.26	49945.12
700.45	49764.58
700.65	49527.34
700.84	50010.58
701.04	49555.68
701.23	49938.57
701.42	49723.12
701.62	49605.24
701.81	49771.62
702.00	49634.90
702.20	49205.97
702.39	49430.67
702.58	49540.20
702.78	49256.11
702.97	49087.76
703.17	49095.30
703.36	49156.08
703.55	48958.82
703.75	48810.06
703.94	49105.70
704.13	48827.18
704.33	48763.69
704.52	49093.58
704.71	48789.99
704.91	48707.74
705.10	48322.31
705.29	48442.00
705.49	48546.85
705.68	48587.40
705.87	48508.93
706.07	48060.26
706.26	48580.03
706.45	47849.72
706.65	47732.74
706.84	48276.85
707.03	48447.08
707.23	47752.73
707.42	47596.68
707.61	48131.77
707.80	47670.00
708.00	47868.24
708.19	47707.27
708.38	48055.59
708.58	47159.48
708.77	47601.35
708.96	47016.28
709.16	46960.99
709.35	47701.53
709.54	47179.14
709.74	47099.68
709.93	46835.24
710.12	47434.97
710.31	47691.95
710.51	47019.89
710.70	47021.44
710.89	47096.07
711.09	46459.48
711.28	46470.05
711.47	46804.28
711.66	46552.05
711.86	46473.24
712.05	46583.42
712.24	46731.45
712.43	46232.65
712.63	45937.33
712.82	46433.19
713.01	46125.09
713.21	45848.53
713.40	45988.61
713.59	46388.70
713.78	45723.93
713.98	46046.61
714.17	45860.82
714.36	45933.40
714.55	45471.62
714.75	45765.22
714.94	45658.56
715.13	45896.78
715.32	45252.16
715.52	45542.48
715.71	45195.39
715.90	45382.17
716.09	45132.07
716.29	45469.00
716.48	45235.37
716.67	44583.38
716.86	44972.66
717.06	44991.83
717.25	45129.29
717.44	45208.01
717.63	45203.34
717.82	44610.17
718.02	44770.48
718.21	44980.60
718.40	44936.86
718.59	44682.01
718.79	44485.24
718.98	44470.17
719.17	44713.96
719.36	44766.96
719.55	44394.15
719.75	44231.95
719.94	44105.87
720.13	44263.40
720.32	44044.60
720.51	43644.84
720.71	43645.82
720.90	43226.89
721.09	43692.27
721.28	43382.61
721.47	43902.39
721.67	43732.41
721.86	43750.18
722.05	43689.15
722.24	43176.18
722.43	43615.92
722.63	43156.76
722.82	43172.16
723.01	43155.70
723.20	42739.72
723.39	42754.38
723.58	42984.49
723.78	42377.22
723.97	43019.80
724.16	42425.39
724.35	42684.91
724.54	42401.55
724.73	42867.92
724.93	42455.13
725.12	42871.36
725.31	42123.52
725.50	42491.99
725.69	42719.81
725.88	42247.14
726.08	41892.84
726.27	42423.51
726.46	41753.66
726.65	42628.96
726.84	41785.85
727.03	41899.06
727.23	42043.98
727.42	41660.35
727.61	41608.99
727.80	41316.21
727.99	41614.15
728.18	41685.99
728.37	41431.47
728.56	41309.33
728.76	41157.37
728.95	41332.60
729.14	41256.99
729.33	41013.85
729.52	41013.20
729.71	40992.63
729.90	40933.98
730.09	40670.61
730.29	41045.72
730.48	40489.08
730.67	40960.85
730.86	40491.29
731.05	40867.46
731.24	40514.15
731.43	40544.46
731.62	40305.50
731.81	40099.15
732.01	40538.97
732.20	39996.99
732.39	40335.65
732.58	40292.15
732.77	39625.82
732.96	40114.06
733.15	40239.72
733.34	39862.07
733.53	40004.53
733.72	40050.65
733.92	39967.26
734.11	39874.36
734.30	40054.66
734.49	40234.72
734.68	39984.46
734.87	39765.57
735.06	39736.82
735.25	39728.38
735.44	39403.16
735.63	39483.94
735.82	39605.91
736.01	39395.22
736.20	39323.70
736.40	39646.38
736.59	39469.19
736.78	39638.76
736.97	38954.91
737.16	39114.48
737.35	39119.15
737.54	39046.90
737.73	38775.34
737.92	38931.23
738.11	39122.43
738.30	38894.61
738.49	38786.15
738.68	38824.33
738.87	38946.80
739.06	38680.48
739.25	38710.38
739.44	38666.96
739.63	38556.70
739.82	38207.97
740.01	38477.81
740.20	38065.60
740.39	38078.29
740.59	37989.66
740.78	38042.49
740.97	37864.98
741.16	37749.72
741.35	37965.08
741.54	37859.98
741.73	37849.33
741.92	37676.56
742.11	37898.24
742.30	37912.65
742.49	37590.22
742.68	37941.24
742.87	37770.20
743.06	37274.59
743.25	37526.98
743.44	37210.36
743.63	37419.17
743.82	37052.92
744.01	37071.76
744.20	36842.71
744.39	37187.43
744.58	37085.85
744.77	36876.30
744.96	36635.54
745.15	36929.96
745.34	36570.74
745.53	36606.46
745.72	36380.36
745.91	36397.81
746.10	36186.62
746.29	36464.74
746.48	36382.33
746.67	36314.91
746.86	36247.98
747.04	36228.16
747.23	36037.61
747.42	36329.57
747.61	35980.84
747.80	36480.14
747.99	35748.77
748.18	36145.67
748.37	36023.36
748.56	35572.23
748.75	35781.95
748.94	35802.10
749.13	35771.87
749.32	35533.00
749.51	35706.09
749.70	35827.90
749.89	35541.19
750.08	35664.07
750.27	35166.16
750.46	35462.63
750.65	35779.73
750.84	35289.45
751.02	35473.93
751.21	35230.63
751.40	35288.55
751.59	35253.08
751.78	35045.91
751.97	35094.81
752.16	34867.73
752.35	35078.26
752.54	34673.91
752.73	35033.62
752.92	34681.12
753.11	34704.31
753.30	34716.76
753.49	34852.91
753.67	34558.24
753.86	34336.41
754.05	34492.22
754.24	34336.65
754.43	34314.62
754.62	34409.89
754.81	34074.43
755.00	34196.24
755.19	34163.72
755.38	33701.29
755.56	34100.07
755.75	34335.59
755.94	33935.09
756.13	33981.95
756.32	34086.56
756.51	33795.01
756.70	33930.25
756.89	33931.98
757.08	33796.56
757.26	33892.16
757.45	33797.55
757.64	33563.34
757.83	33840.55
758.02	33587.59
758.21	33562.85
758.40	33760.11
758.59	33730.70
758.77	33451.44
758.96	33486.34
759.15	33474.87
759.34	33130.32
759.53	33258.44
759.72	33142.20
759.91	32865.64
760.09	33130.07
760.28	33110.08
760.47	32766.19
760.66	33170.21
760.85	32714.83
761.04	33052.00
761.23	32891.44
761.41	32785.28
761.60	32834.76
761.79	32723.35
761.98	32469.97
762.17	32900.13
762.36	32507.16
762.54	32767.99
762.73	32572.12
762.92	32372.49
763.11	32687.06
763.30	32666.49
763.49	32534.20
763.67	32312.69
763.86	32328.33
764.05	32536.41
764.24	32354.71
764.43	32584.66
764.61	32047.27
764.80	32050.71
764.99	32371.59
765.18	31899.08
765.37	32099.94
765.55	32042.19
765.74	31940.45
765.93	31700.10
766.12	31927.26
766.31	31968.14
766.49	32112.56
766.68	32174.90
766.87	32077.25
767.06	32012.86
767.25	31989.44
767.43	31866.72
767.62	31718.94
767.81	31870.49
768.00	31522.83
768.19	31381.68
768.37	31524.38
768.56	31452.29
768.75	31592.87
768.94	31668.40
769.12	31370.38
769.31	31316.31
769.50	31244.38
769.69	31402.32
769.88	30916.87
770.06	31441.97
770.25	31026.81
770.44	31115.85
770.63	31331.05
770.81	31184.26
771.00	30958.57
771.19	30997.81
771.38	30893.69
771.56	31089.80
771.75	30482.79
771.94	30893.69
772.13	30842.90
772.31	30630.98
772.50	30970.45
772.69	30709.95
772.88	30973.48
773.06	30555.04
773.25	30757.38
773.44	30665.79
773.62	30622.70
773.81	30711.99
774.00	30477.22
774.19	30557.17
774.37	30371.70
774.56	30645.39
774.75	30295.68
774.94	30582.40
775.12	30325.83
775.31	30413.81
775.50	30441.74
775.68	30260.62
775.87	30178.46
776.06	30076.47
776.25	30357.94
776.43	30064.92
776.62	30299.04
776.81	29935.65
776.99	30129.63
777.18	30095.23
777.37	29722.33
777.55	29875.44
777.74	29890.51
777.93	29820.55
778.12	29832.52
778.30	29667.69
778.49	29637.22
778.68	29793.28
778.86	29616.25
779.05	29782.71
779.24	29699.72
779.42	29532.69
779.61	29416.61
779.80	29638.04
779.98	29761.98
780.17	29825.55
780.36	29516.14
780.54	29811.71
780.73	29208.38
780.92	29588.81
781.10	29327.57
781.29	29255.32
781.48	29141.78
781.66	29239.67
781.85	29255.23
782.04	29089.92
782.22	29219.11
782.41	28909.78
782.60	29085.74
782.78	29031.27
782.97	29132.44
783.16	28688.27
783.34	28740.21
783.53	28821.80
783.71	28729.97
783.90	28782.40
784.09	28672.14
784.27	28708.10
784.46	28696.63
784.65	28742.09
784.83	28622.41
785.02	28591.69
785.20	28909.95
785.39	28386.08
785.58	28866.77
785.76	28734.72
785.95	28696.88
786.14	28786.00
786.32	28756.02
786.51	28623.64
786.69	28873.00
786.88	28689.67
787.07	28646.33
787.25	28583.09
787.44	28639.53
787.62	28464.47
787.81	28615.12
788.00	28582.35
788.18	28409.83
788.37	28319.72
788.55	28848.26
788.74	28511.17
788.93	28734.48
789.11	28976.87
789.30	28862.84
789.48	28700.97
789.67	28897.17
789.86	28837.94
790.04	28907.16
790.23	28870.46
790.41	28766.42
790.60	28941.57
790.78	28952.87
790.97	28602.26
791.16	28880.70
791.34	29133.67
791.53	28559.99
791.71	29049.54
791.90	28718.83
792.08	28801.16
792.27	28753.89
792.46	28686.96
792.64	28721.53
792.83	28561.22
793.01	28639.70
793.20	28570.97
793.38	28519.44
793.57	28572.20
793.75	28601.36
793.94	28666.98
794.12	28990.64
794.31	28587.02
794.50	28824.83
794.68	28845.39
794.87	28657.80
795.05	28850.80
795.24	28628.39
795.42	28557.12
795.61	28969.42
795.79	28947.55
795.98	28504.61
796.16	28874.88
796.35	28970.32
796.53	28737.34
796.72	28996.62
796.90	28953.04
797.09	28984.57
797.27	29003.66
797.46	28920.43
797.64	29054.78
797.83	28863.66
798.01	28885.12
798.20	28999.40
798.38	28727.51
798.57	29022.42
798.75	28889.06
798.94	28505.76
799.12	29301.11
799.31	28880.21
799.49	28813.36
799.68	28647.64
799.86	28701.71
800.05	28688.36
800.23	28721.86
800.42	28649.12
800.60	28991.62
800.79	28545.41
800.97	28743.41
801.16	29023.49
801.34	28585.71
801.53	28588.17
801.71	28780.27
801.90	28578.58
802.08	28937.06
802.27	28638.96
802.45	28482.17
802.64	28547.87
802.82	28669.35
803.00	28334.14
803.19	28432.52
803.37	28710.39
803.56	28435.72
803.74	28484.71
803.93	28544.18
804.11	28483.48
804.30	28352.73
804.48	28566.21
804.67	28641.91
804.85	28491.18
805.03	28682.79
805.22	28305.63
805.40	28199.06
805.59	28379.03
805.77	28401.15
805.96	28332.17
806.14	28272.70
806.32	28380.34
806.51	28494.37
806.69	28199.63
806.88	27958.62
807.06	27915.70
807.25	27926.10
807.43	27940.11
807.61	27978.37
807.80	27906.69
807.98	28068.39
808.17	27866.38
808.35	27852.95
808.53	28240.42
808.72	27964.11
808.90	27962.64
809.09	28079.37
809.27	28111.48
809.45	27768.98
809.64	28031.12
809.82	27756.04
810.01	27783.32
810.19	27794.54
810.37	27629.06
810.56	27577.29
810.74	27731.95
810.93	27362.83
811.11	27448.19
811.29	27401.74
811.48	27462.28
811.66	27477.76
811.84	27446.47
812.03	27404.44
812.21	27491.85
812.40	27602.85
812.58	27627.26
812.76	27302.13
812.95	27534.28
813.13	27116.58
813.31	27256.09
813.50	27311.71
813.68	27257.40
813.86	27365.86
814.05	27372.41
814.23	26951.10
814.42	27217.83
814.60	26993.62
814.78	27159.18
814.97	27093.97
815.15	27080.21
815.33	27234.95
815.52	27084.47
815.70	27071.94
815.88	27070.05
816.07	26764.99
816.25	26828.23
816.43	26759.99
816.62	26474.67
816.80	26482.20
816.98	26468.19
817.17	26456.64
817.35	26457.46
817.53	26466.06
817.72	26528.16
817.90	26239.23
818.08	26227.84
818.26	26467.05
818.45	26171.16
818.63	26450.75
818.81	26472.70
819.00	26124.87
819.18	26357.93
819.36	26338.93
819.55	26315.91
819.73	26127.25
819.91	26340.89
820.09	26154.85
820.28	26355.15
820.46	26131.67
820.64	26502.85
820.83	26099.15
821.01	26138.31
821.19	26023.62
821.38	25984.96
821.56	25886.65
821.74	25944.08
821.92	25795.89
822.11	26075.23
822.29	25640.73
822.47	25668.50
822.65	25761.07
822.84	25748.78
823.02	25548.08
823.20	25899.68
823.39	25593.96
823.57	25689.23
823.75	25705.78
823.93	25565.37
824.12	25708.56
824.30	25513.10
824.48	25530.96
824.66	25701.35
824.85	25235.81
825.03	25536.78
825.21	25572.74
825.39	25451.83
825.58	25556.36
825.76	25349.02
825.94	25404.81
826.12	25282.09
826.31	25191.24
826.49	25312.32
826.67	25269.72
826.85	25106.38
827.03	25175.43
827.22	25365.16
827.40	25106.79
827.58	25165.52
827.76	25228.27
827.95	25073.77
828.13	25084.01
828.31	25095.65
828.49	25151.19
828.67	25075.98
828.86	24968.10
829.04	25015.61
829.22	24969.16
829.40	24864.72
829.58	24875.20
829.77	24841.12
829.95	24798.12
830.13	24718.00
830.31	24624.61
830.49	24698.75
830.68	24701.70
830.86	24574.15
831.04	24430.55
831.22	24499.52
831.40	24414.00
831.59	24594.71
831.77	24415.15
831.95	24528.36
832.13	24295.05
832.31	24490.18
832.50	24445.29
832.68	24245.33
832.86	24350.92
833.04	24446.93
833.22	24077.72
833.40	24483.71
833.59	24138.67
833.77	24342.73
833.95	23777.49
834.13	24505.58
834.31	24111.06
834.49	24157.10
834.67	24097.14
834.86	24114.75
835.04	23969.43
835.22	23939.94
835.40	23874.15
835.58	23802.15
835.76	23893.73
835.95	23891.44
836.13	23780.19
836.31	23661.58
836.49	23918.15
836.67	23845.81
836.85	23822.96
837.03	23726.62
837.21	23704.34
837.40	23534.36
837.58	23353.64
837.76	23544.51
837.94	23466.36
838.12	23672.63
838.30	23469.89
838.48	23396.65
838.66	23299.00
838.85	23259.60
839.03	23320.71
839.21	23260.26
839.39	23190.79
839.57	23302.28
839.75	23218.40
839.93	23246.82
840.11	23272.95
840.29	23168.10
840.47	23164.16
840.66	23124.60
840.84	23060.78
841.02	22935.94
841.20	22900.80
841.38	22899.65
841.56	22841.81
841.74	23106.74
841.92	22784.39
842.10	22729.18
842.28	22823.46
842.46	22703.21
842.65	22658.48
842.83	22852.96
843.01	22905.55
843.19	22591.80
843.37	22782.10
843.55	22698.13
843.73	22777.26
843.91	22769.64
844.09	22647.42
844.27	22844.19
844.45	22615.06
844.63	22569.35
844.81	22600.56
844.99	22661.68
845.17	22489.81
845.35	22659.96
845.54	22432.88
845.72	22475.88
845.90	22380.61
846.08	22445.66
846.26	22177.70
846.44	22361.77
846.62	21961.19
846.80	22042.70
846.98	22034.01
847.16	21990.11
847.34	22029.67
847.52	21984.04
847.70	21999.77
847.88	22150.99
848.06	22005.26
848.24	22048.19
848.42	22071.29
848.60	21926.62
848.78	22059.24
848.96	22059.33
849.14	21990.35
849.32	22151.57
849.50	21922.69
849.68	22060.56
849.86	21929.81
850.04	21821.52
850.22	21801.69
850.40	21558.39
850.58	21749.43
850.76	22021.89
850.94	21387.92
851.12	21676.93
851.30	21490.81
851.48	21686.84
851.66	21516.62
851.84	21460.83
852.02	21432.65
852.20	21583.54
852.38	21317.14
852.56	21498.59
852.74	21408.24
852.92	21313.95
853.10	21240.22
853.28	21398.08
853.46	20940.73
853.64	21219.50
853.82	21072.37
854.00	21085.97
854.18	20993.15
854.36	20907.14
854.54	21077.86
854.72	20881.91
854.90	20813.83
855.07	20913.45
855.25	20898.21
855.43	20908.37
855.61	20828.74
855.79	20741.17
855.97	20867.74
856.15	20838.25
856.33	20748.71
856.51	20921.97
856.69	20632.71
856.87	20818.91
857.05	20677.93
857.23	20691.37
857.41	20435.45
857.59	20436.68
857.77	20443.32
857.94	20369.02
858.12	20482.39
858.30	20344.77
858.48	20307.08
858.66	20182.49
858.84	20389.49
859.02	20103.43
859.20	20086.23
859.38	20360.09
859.56	20239.67
859.74	20214.68
859.92	20255.89
860.09	20144.31
860.27	20256.21
860.45	20133.83
860.63	20240.89
860.81	20326.09
860.99	20155.70
861.17	19953.77
861.35	19594.06
861.53	19471.19
861.70	19393.44
861.88	19798.70
862.06	19817.13
862.24	19540.49
862.42	19507.64
862.60	19735.62
862.78	19768.31
862.96	19808.61
863.14	19601.27
863.31	19597.34
863.49	19552.78
863.67	19416.22
863.85	19408.85
864.03	19396.89
864.21	19367.64
864.39	19398.03
864.56	19212.49
864.74	19300.30
864.92	19222.32
865.10	19197.90
865.28	19226.00
865.46	19331.51
865.64	18922.58
865.81	19192.42
865.99	18934.45
866.17	19208.88
866.35	19075.35
866.53	19082.73
866.71	19106.65
866.88	19195.69
867.06	18988.11
867.24	19074.21
867.42	18888.25
867.60	19013.92
867.78	18892.68
867.95	19076.17
868.13	18825.83
868.31	19018.42
868.49	18966.73
868.67	18854.91
868.84	18821.90
869.02	18837.54
869.20	18511.43
869.38	18792.57
869.56	18575.81
869.73	18542.15
869.91	18599.57
870.09	18577.45
870.27	18446.71
870.45	18459.57
870.62	18287.54
870.80	18397.39
870.98	18289.10
871.16	18242.16
871.34	18269.27
871.51	18354.14
871.69	18097.65
871.87	18172.53
872.05	18135.83
872.23	18136.24
872.40	17976.41
872.58	18071.69
872.76	17906.87
872.94	17907.68
873.11	17963.06
873.29	17827.49
873.47	17921.77
873.65	17907.19
873.83	17867.63
874.00	17930.38
874.18	18004.68
874.36	17918.66
874.54	17976.66
874.71	17778.99
874.89	17629.82
875.07	17810.28
875.25	17658.08
875.42	17712.96
875.60	17624.00
875.78	17702.07
875.96	17501.04
876.13	17623.92
876.31	17344.33
876.49	17337.53
876.66	17181.64
876.84	17447.96
877.02	17296.16
877.20	17308.04
877.37	17340.72
877.55	17275.03
877.73	17275.19
877.91	17202.20
878.08	17345.48
878.26	17302.80
878.44	17311.15
878.61	17375.38
878.79	17249.96
878.97	17299.03
879.15	17431.16
879.32	17349.16
879.50	17294.19
879.68	17448.78
879.85	17232.67
880.03	17444.19
880.21	17211.70
880.38	17295.01
880.56	17109.80
880.74	17301.98
880.92	17033.12
881.09	17165.66
881.27	17061.14
881.45	17090.05
881.62	16963.00
881.80	16925.97
881.98	16883.78
882.15	17032.79
882.33	16880.18
882.51	16963.00
882.68	16777.04
882.86	17033.37
883.04	16763.44
883.21	16856.99
883.39	16993.96
883.57	16851.10
883.74	16886.24
883.92	16895.99
884.10	16949.81
884.27	16901.23
884.45	16811.04
884.63	16963.24
884.80	16854.54
884.98	16908.19
885.16	16843.31
885.33	16871.41
885.51	16852.00
885.69	16907.87
885.86	16784.01
886.04	16907.21
886.21	16697.09
886.39	16880.75
886.57	16570.20
886.74	16862.32
886.92	16768.93
887.10	16786.46
887.27	16773.11
887.45	16816.12
887.62	16799.82
887.80	16812.51
887.98	17006.58
888.15	16940.22
888.33	16870.43
888.51	16970.78
888.68	16839.55
888.86	16861.83
889.03	16743.54
889.21	16833.32
889.39	16887.22
889.56	16823.33
889.74	16753.61
889.91	16795.80
890.09	16797.19
890.27	16761.48
890.44	16817.59
890.62	16796.54
890.79	16808.17
890.97	16850.52
891.14	16821.61
891.32	16796.29
891.50	16742.64
891.67	16819.48
891.85	16800.47
892.02	16784.01
892.20	16844.71
892.38	16817.18
892.55	16765.25
892.73	16874.36
892.90	16704.22
893.08	16727.97
893.25	16660.80
893.43	16858.22
893.60	16672.02
893.78	16789.90
893.96	16702.66
894.13	16839.71
894.31	16905.57
894.48	16832.66
894.66	16848.56
894.83	16823.65
895.01	16804.65
895.18	16837.66
895.36	16761.64
895.53	16924.91
895.71	16774.75
895.89	16866.17
896.06	16695.86
896.24	16801.54
896.41	16759.18
896.59	16832.83
896.76	16573.56
896.94	16792.11
897.11	16777.86
897.29	16730.76
897.46	16545.87
897.64	16587.40
897.81	16550.62
897.99	16421.51
898.16	16618.37
898.34	16522.44
898.51	16499.42
898.69	16368.68
898.86	16407.83
899.04	16401.20
899.21	16311.91
899.39	16375.07
899.56	16324.44
899.74	16527.11
899.91	16326.90
900.09	16354.67
900.26	16369.99
900.44	16253.83
900.61	16297.49
900.79	16501.06
900.96	16339.10
901.14	16309.61
901.31	16273.49
901.49	16262.92
901.66	16297.65
901.84	16219.58
902.01	16092.12
902.19	16156.02
902.36	16041.58
902.54	16074.42
902.71	16096.62
902.88	16148.07
903.06	15927.22
903.23	16189.27
903.41	16035.68
903.58	15939.67
903.76	15856.85
903.93	15994.39
904.11	16042.15
904.28	15938.60
904.45	15942.54
904.63	15843.09
904.80	15703.25
904.98	15801.96
905.15	15595.20
905.33	15744.78
905.50	15635.67
905.68	15657.79
905.85	15588.89
906.02	15532.86
906.20	15654.92
906.37	15452.50
906.55	15314.79
906.72	15531.63
906.90	15373.45
907.07	15271.38
907.24	15391.39
907.42	15239.67
907.59	15278.01
907.77	15253.27
907.94	15168.49
908.11	15213.29
908.29	15079.36
908.46	15076.98
908.64	14974.67
908.81	15049.62
908.98	14891.35
909.16	15051.34
909.33	14926.09
909.51	14885.78
909.68	14856.05
909.85	14894.06
910.03	14863.91
910.20	14734.97
910.37	14725.55
910.55	14717.44
910.72	14610.95
910.90	14508.79
911.07	14520.10
911.24	14435.97
911.42	14551.96
911.59	14344.79
911.76	14429.91
911.94	14349.22
912.11	14331.77
912.29	14360.93
912.46	14243.46
912.63	14299.66
912.81	14091.99
912.98	14280.57
913.15	14054.47
913.33	14176.70
913.50	14101.66
913.67	14046.85
913.85	13988.36
914.02	13985.66
914.19	13906.45
914.37	13862.45
914.54	13926.68
914.71	13833.95
914.89	13822.07
915.06	13794.46
915.23	13734.74
915.41	13689.93
915.58	13623.42
915.75	13595.48
915.93	13591.22
916.10	13526.42
916.27	13445.08
916.45	13425.34
916.62	13355.30
916.79	13423.62
916.97	13307.62
917.14	13263.96
917.31	13167.62
917.49	13246.67
917.66	13198.99
917.83	13157.79
918.00	13104.54
918.18	13064.65
918.35	13029.67
918.52	13122.32
918.70	13028.93
918.87	13010.99
919.04	13043.68
919.21	12968.97
919.39	12949.88
919.56	12982.16
919.73	12859.85
919.91	12949.72
920.08	12894.34
920.25	12831.67
920.42	12924.89
920.60	12735.58
920.77	12641.46
920.94	12676.68
921.11	12492.69
921.29	12591.89
921.46	12417.00
921.63	12525.21
921.81	12380.63
921.98	12402.33
922.15	12356.95
922.32	12435.51
922.50	12297.15
922.67	12258.81
922.84	12223.75
923.01	12145.27
923.19	12104.48
923.36	12096.20
923.53	11908.69
923.70	12064.34
923.87	12018.14
924.05	12028.46
924.22	11892.23
924.39	11955.88
924.56	11848.89
924.74	11942.61
924.91	11888.95
925.08	11793.27
925.25	11831.36
925.43	11784.75
925.60	11657.45
925.77	11805.56
925.94	11659.00
926.11	11637.21
926.29	11597.57
926.46	11563.98
926.63	11538.50
926.80	11520.73
926.97	11396.37
927.15	11474.44
927.32	11348.53
927.49	11290.53
927.66	11350.58
927.83	11365.57
928.01	11223.77
928.18	11283.82
928.35	11190.43
928.52	11261.29
928.69	11121.54
928.87	11133.00
929.04	11128.17
929.21	11154.06
929.38	11026.76
929.55	11088.93
929.72	11001.11
929.90	10973.10
930.07	10971.79
930.24	10866.69
930.41	10870.70
930.58	10839.65
930.75	10871.60
930.93	10771.82
931.10	10713.83
931.27	10642.23
931.44	10640.43
931.61	10603.40
931.78	10625.27
931.95	10579.72
932.13	10476.75
932.30	10597.01
932.47	10398.85
932.64	10476.67
932.81	10425.39
932.98	10383.12
933.15	10392.29
933.33	10298.09
933.50	10384.76
933.67	10310.21
933.84	10243.28
934.01	10274.66
934.18	10228.05
934.35	10199.46
934.52	10178.40
934.70	10174.06
934.87	10133.84
935.04	10102.71
935.21	10105.17
935.38	10067.16
935.55	10016.12
935.72	10150.80
935.89	9981.14
936.06	10029.89
936.24	9904.47
936.41	10024.32
936.58	9871.95
936.75	9912.17
936.92	9902.34
937.09	9859.90
937.26	9790.11
937.43	9808.30
937.60	9800.51
937.77	9734.08
937.94	9740.88
938.12	9746.28
938.29	9668.46
938.46	9673.05
938.63	9560.16
938.80	9615.95
938.97	9543.29
939.14	9533.54
939.31	9471.20
939.48	9472.18
939.65	9384.28
939.82	9380.84
939.99	9384.04
940.16	9365.03
940.33	9343.00
940.50	9285.33
940.67	9264.11
940.85	9293.93
941.02	9234.05
941.19	9228.97
941.36	9238.22
941.53	9259.60
941.70	9238.88
941.87	9138.86
942.04	9161.55
942.21	9147.70
942.38	9135.25
942.55	9086.67
942.72	9108.38
942.89	9057.02
943.06	9031.62
943.23	9005.66
943.40	8942.91
943.57	8975.59
943.74	8953.23
943.91	8942.82
944.08	8931.11
944.25	8965.43
944.42	8859.51
944.59	8848.62
944.76	8831.33
944.93	8799.96
945.10	8770.39
945.27	8723.36
945.44	8645.79
945.61	8658.24
945.78	8616.46
945.95	8640.54
946.12	8561.49
946.29	8596.39
946.46	8538.23
946.63	8517.67
946.80	8533.31
946.97	8475.15
947.14	8444.27
947.31	8503.17
947.48	8409.94
947.65	8399.05
947.82	8384.96
947.99	8435.26
948.16	8329.25
948.33	8393.31
948.50	8274.37
948.67	8305.00
948.84	8257.16
949.01	8231.36
949.18	8238.90
949.35	8265.19
949.52	8194.09
949.68	8204.49
949.85	8165.25
950.02	8169.02
950.19	8135.27
950.36	8105.94
950.53	8068.01
950.70	8064.08
950.87	8010.51
951.04	8061.62
951.21	7963.98
951.38	7904.18
951.55	7925.07
951.72	7942.92
951.89	7872.72
952.06	7946.61
952.23	7900.41
952.39	7892.05
952.56	7818.16
952.73	7854.94
952.90	7798.42
953.07	7887.96
953.24	7751.89
953.41	7793.26
953.58	7692.83
953.75	7769.99
953.92	7699.46
954.09	7715.44
954.25	7641.95
954.42	7696.68
954.59	7616.72
954.76	7577.81
954.93	7563.56
955.10	7624.51
955.27	7536.44
955.44	7556.76
955.61	7520.63
955.77	7600.34
955.94	7518.26
956.11	7517.36
956.28	7498.84
956.45	7487.29
956.62	7527.43
956.79	7501.96
956.96	7483.11
957.12	7495.65
957.29	7444.78
957.46	7407.83
957.63	7367.20
957.80	7351.06
957.97	7311.17
958.14	7398.25
958.30	7284.95
958.47	7276.43
958.64	7280.04
958.81	7354.91
958.98	7259.39
959.15	7227.45
959.32	7286.67
959.48	7288.97
959.65	7185.09
959.82	7212.62
959.99	7186.49
960.16	7196.07
960.33	7178.29
960.49	7185.75
960.66	7128.49
960.83	7133.81
961.00	7119.23
961.17	7091.13
961.33	7041.08
961.50	7065.33
961.67	6993.90
961.84	7023.47
962.01	6937.13
962.18	6999.79
962.34	6934.67
962.51	6922.63
962.68	6853.98
962.85	6916.89
963.02	6852.59
963.18	6860.94
963.35	6775.91
963.52	6809.58
963.69	6796.39
963.86	6819.57
964.02	6744.62
964.19	6781.97
964.36	6718.73
964.53	6752.81
964.69	6658.68
964.86	6758.62
965.03	6671.95
965.20	6713.90
965.37	6652.38
965.53	6638.94
965.70	6635.17
965.87	6651.15
966.04	6608.55
966.20	6597.49
966.37	6590.53
966.54	6516.72
966.71	6590.45
966.87	6529.33
967.04	6552.44
967.21	6485.75
967.38	6454.38
967.54	6475.43
967.71	6425.46
967.88	6439.96
968.05	6400.07
968.21	6347.72
968.38	6363.53
968.55	6377.29
968.72	6322.73
968.88	6294.31
969.05	6358.62
969.22	6314.05
969.39	6285.87
969.55	6306.51
969.72	6255.23
969.89	6281.69
970.05	6279.07
970.22	6313.07
970.39	6231.40
970.56	6282.76
970.72	6263.02
970.89	6284.64
971.06	6237.05
971.22	6238.11
971.39	6215.18
971.56	6242.04
971.73	6155.21
971.89	6234.43
972.06	6170.20
972.23	6189.94
972.39	6112.86
972.56	6172.50
972.73	6085.74
972.89	6153.90
973.06	6121.38
973.23	6102.62
973.39	6073.78
973.56	6065.84
973.73	6058.14
973.89	6056.25
974.06	6013.33
974.23	6018.32
974.39	6004.23
974.56	5989.57
974.73	5975.81
974.89	5935.34
975.06	5898.64
975.23	5979.99
975.39	5896.02
975.56	5933.13
975.73	5862.84
975.89	5868.00
976.06	5822.78
976.23	5815.90
976.39	5836.38
976.56	5813.36
976.73	5826.72
976.89	5795.26
977.06	5762.66
977.23	5765.61
977.39	5742.42
977.56	5788.22
977.72	5694.91
977.89	5751.84
978.06	5740.29
978.22	5707.12
978.39	5703.10
978.56	5712.28
978.72	5664.19
978.89	5706.87
979.05	5666.81
979.22	5662.31
979.39	5633.55
979.55	5638.30
979.72	5581.86
979.88	5618.23
980.05	5557.04
980.22	5593.00
980.38	5570.31
980.55	5556.88
980.71	5557.61
980.88	5537.05
981.05	5532.38
981.21	5513.62
981.38	5504.04
981.54	5517.15
981.71	5476.02
981.88	5498.63
982.04	5482.58
982.21	5469.71
982.37	5421.06
982.54	5477.25
982.70	5415.24
982.87	5452.92
983.04	5375.92
983.20	5439.40
983.37	5381.57
983.53	5418.52
983.70	5382.72
983.86	5389.27
984.03	5369.69
984.20	5347.82
984.36	5336.84
984.53	5314.56
984.69	5297.77
984.86	5263.69
985.02	5285.97
985.19	5259.18
985.35	5244.85
985.52	5271.64
985.68	5216.75
985.85	5209.95
986.02	5215.85
986.18	5226.99
986.35	5204.71
986.51	5235.35
986.68	5215.03
986.84	5201.43
987.01	5175.71
987.17	5212.82
987.34	5176.28
987.50	5165.80
987.67	5142.20
987.83	5175.30
988.00	5152.53
988.16	5118.20
988.33	5124.92
988.49	5102.47
988.66	5094.45
988.82	5109.19
988.99	5077.49
989.15	5092.32
989.32	5040.62
989.48	5058.81
989.65	5038.41
989.81	5010.07
989.98	4993.28
990.14	5016.70
990.31	5013.43
990.47	5005.40
990.64	4978.53
990.80	4998.27
990.97	4934.21
991.13	4960.43
991.30	4949.20
991.46	4936.42
991.63	4927.41
991.79	4940.93
991.95	4877.03
992.12	4925.04
992.28	4896.94
992.45	4871.87
992.61	4882.44
992.78	4879.74
992.94	4842.30
993.11	4874.66
993.27	4843.53
993.44	4851.64
993.60	4837.96
993.76	4842.46
993.93	4841.15
994.09	4849.75
994.26	4803.72
994.42	4806.91
994.59	4790.36
994.75	4833.12
994.91	4763.49
995.08	4764.15
995.24	4737.28
995.41	4774.14
995.57	4735.80
995.74	4751.04
995.90	4723.19
996.06	4734.49
996.23	4720.81
996.39	4706.07
996.56	4699.76
996.72	4709.26
996.88	4684.93
997.05	4678.54
997.21	4678.87
997.38	4669.45
997.54	4634.96
997.70	4650.69
997.87	4654.21
998.03	4653.15
998.20	4617.35
998.36	4638.65
998.52	4582.21
998.69	4626.93
998.85	4587.29
999.02	4597.28
999.18	4569.43
999.34	4596.95
999.51	4555.01
999.67	4576.96
999.83	4538.38
1000.00	4559.68
1000.16	4538.79
1000.33	4543.13
1000.49	4524.37
1000.65	4544.28
1000.82	4536.09
1000.98	4498.57
1001.14	4498.65
1001.31	4540.59
1001.47	4538.30
1001.63	4536.50
1001.80	4480.55
1001.96	4461.62
1002.12	4467.85
1002.29	4458.43
1002.45	4442.54
1002.61	4459.49
1002.78	4418.04
1002.94	4441.96
1003.10	4401.17
1003.27	4420.17
1003.43	4407.31
1003.59	4400.92
1003.76	4387.08
1003.92	4384.62
1004.08	4373.40
1004.25	4411.24
1004.41	4383.64
1004.57	4382.08
1004.74	4356.19
1004.90	4394.04
1005.06	4341.94
1005.23	4331.86
1005.39	4340.14
1005.55	4354.47
1005.71	4356.93
1005.88	4324.82
1006.04	4346.20
1006.20	4307.29
1006.37	4273.46
1006.53	4274.11
1006.69	4290.58
1006.85	4307.29
1007.02	4256.42
1007.18	4275.09
1007.34	4288.94
1007.51	4266.90
1007.67	4245.03
1007.83	4235.94
1007.99	4246.18
1008.16	4237.17
1008.32	4189.32
1008.48	4221.52
1008.64	4208.17
1008.81	4234.63
1008.97	4210.46
1009.13	4202.68
1009.29	4176.87
1009.46	4193.99
1009.62	4170.57
1009.78	4159.83
1009.95	4175.81
1010.11	4173.76
1010.27	4132.31
1010.43	4153.03
1010.59	4157.21
1010.76	4136.00
1010.92	4144.76
1011.08	4141.65
1011.24	4114.86
1011.41	4151.56
1011.57	4115.84
1011.73	4138.04
1011.89	4089.79
1012.06	4117.81
1012.22	4104.29
1012.38	4081.77
1012.54	4073.41
1012.70	4084.88
1012.87	4059.32
1013.03	4064.40
1013.19	4070.05
1013.35	4078.41
1013.51	4038.76
1013.68	4069.97
1013.84	4048.10
1014.00	4057.44
1014.16	4013.04
1014.32	4027.21
1014.49	4011.15
1014.65	4033.35
1014.81	4000.91
1014.97	4015.74
1015.13	3998.54
1015.30	4009.84
1015.46	3990.92
1015.62	4004.35
1015.78	3991.25
1015.94	3994.69
1016.10	3966.34
1016.27	3970.03
1016.43	3953.73
1016.59	3983.71
1016.75	3949.06
1016.91	3958.40
1017.07	3935.62
1017.24	3948.89
1017.40	3913.09
1017.56	3944.22
1017.72	3927.76
1017.88	3936.44
1018.04	3917.93
1018.21	3927.68
1018.37	3928.74
1018.53	3913.26
1018.69	3912.85
1018.85	3903.67
1019.01	3888.44
1019.17	3897.78
1019.34	3888.93
1019.50	3881.47
1019.66	3857.55
1019.82	3865.17
1019.98	3864.11
1020.14	3885.24
1020.30	3868.37
1020.46	3871.07
1020.63	3838.30
1020.79	3841.17
1020.95	3853.87
1021.11	3853.70
1021.27	3802.34
1021.43	3828.64
1021.59	3824.05
1021.75	3790.13
1021.91	3796.44
1022.07	3782.60
1022.24	3774.73
1022.40	3803.49
1022.56	3766.87
1022.72	3803.65
1022.88	3781.70
1023.04	3791.45
1023.20	3749.18
1023.36	3769.74
1023.52	3776.78
1023.68	3784.65
1023.84	3746.88
1024.01	3778.50
1024.17	3753.11
1024.33	3755.97
1024.49	3768.26
1024.65	3753.52
1024.81	3736.64
1024.97	3738.61
1025.13	3718.46
1025.29	3738.36
1025.45	3701.17
1025.61	3727.96
1025.77	3715.02
1025.93	3727.79
1026.09	3703.06
1026.25	3738.69
1026.41	3688.31
1026.57	3706.17
1026.73	3717.39
1026.90	3700.93
1027.06	3703.46
1027.22	3690.85
1027.38	3706.91
1027.54	3724.93
1027.70	3697.24
1027.86	3711.66
1028.02	3696.58
1028.18	3697.57
1028.34	3677.66
1028.50	3685.36
1028.66	3670.62
1028.82	3686.43
1028.98	3650.22
1029.14	3642.44
1029.30	3670.21
1029.46	3665.78
1029.62	3668.16
1029.78	3637.60
1029.94	3636.86
1030.10	3636.86
1030.26	3632.61
1030.42	3640.31
1030.58	3617.78
1030.74	3627.53
1030.90	3612.21
1031.06	3613.76
1031.22	3608.19
1031.38	3620.48
1031.54	3616.22
1031.70	3575.92
1031.86	3587.96
1032.02	3575.02
1032.18	3568.79
1032.34	3600.41
1032.50	3573.87
1032.66	3607.21
1032.82	3553.80
1032.98	3579.85
1033.14	3580.18
1033.30	3612.13
1033.45	3559.62
1033.61	3581.82
1033.77	3583.86
1033.93	3588.70
1034.09	3571.58
1034.25	3568.22
1034.41	3547.82
1034.57	3551.42
1034.73	3556.91
1034.89	3554.37
1035.05	3552.32
1035.21	3563.30
1035.37	3536.35
1035.53	3538.64
1035.69	3542.74
1035.85	3551.01
1036.01	3540.53
1036.16	3534.55
1036.32	3523.08
1036.48	3525.86
1036.64	3528.73
1036.80	3528.08
1036.96	3531.11
1037.12	3520.87
1037.28	3509.97
1037.44	3490.64
1037.60	3518.33
1037.76	3497.36
1037.91	3509.48
1038.07	3497.93
1038.23	3494.49
1038.39	3497.77
1038.55	3490.31
1038.71	3522.67
1038.87	3480.56
1039.03	3501.94
1039.19	3469.83
1039.35	3484.74
1039.50	3496.21
1039.66	3491.70
1039.82	3464.10
1039.98	3474.09
1040.14	3465.08
1040.30	3478.84
1040.46	3452.88
1040.62	3438.62
1040.77	3462.46
1040.93	3491.38
1041.09	3456.40
1041.25	3459.10
1041.41	3445.50
1041.57	3452.96
1041.73	3452.96
1041.88	3452.96

