SpectraSuite Data File
++++++++++++++++++++++++++++++++++++
Date: Tue Sep 20 12:09:15 EDT 2022
User: Laboratoire
Dark Spectrum Present: No
Reference Spectrum Present: No
Number of Sampled Component Spectra: 1
Spectrometers: FLMT00174
Integration Time (usec): 15000 (FLMT00174)
Spectra Averaged: 25 (FLMT00174)
Boxcar Smoothing: 0 (FLMT00174)
Correct for Electrical Dark: No (FLMT00174)
Strobe/Lamp Enabled: No (FLMT00174)
Correct for Detector Non-linearity: No (FLMT00174)
Correct for Stray Light: No (FLMT00174)
Number of Pixels in Processed Spectrum: 3648
>>>>>Begin Processed Spectral Data<<<<<
345.74	3161.41
345.96	3161.41
346.18	3161.41
346.39	3159.85
346.61	3192.46
346.83	3216.29
347.05	3215.15
347.27	3209.33
347.49	3211.62
347.71	3217.52
347.93	3218.18
348.15	3217.85
348.36	3206.71
348.58	3235.54
348.80	3216.29
349.02	3220.96
349.24	3219.41
349.46	3305.99
349.68	3335.40
349.90	3336.96
350.11	3311.16
350.33	3318.94
350.55	3314.27
350.77	3327.38
350.99	3322.54
351.21	3329.92
351.43	3318.12
351.65	3333.77
351.86	3331.06
352.08	3337.86
352.30	3305.83
352.52	3349.41
352.74	3320.17
352.96	3349.33
353.18	3321.48
353.39	3356.54
353.61	3335.81
353.83	3340.97
354.05	3359.08
354.27	3335.16
354.49	3313.20
354.70	3340.56
354.92	3330.73
355.14	3337.29
355.36	3336.80
355.58	3325.74
355.80	3328.03
356.02	3342.04
356.23	3312.38
356.45	3334.67
356.67	3349.17
356.89	3368.91
357.11	3352.52
357.33	3344.25
357.54	3329.83
357.76	3322.87
357.98	3325.00
358.20	3361.13
358.42	3332.21
358.63	3344.41
358.85	3349.90
359.07	3363.26
359.29	3318.77
359.51	3334.75
359.73	3325.41
359.94	3335.90
360.16	3301.82
360.38	3330.24
360.60	3325.82
360.82	3346.05
361.03	3339.75
361.25	3355.31
361.47	3350.07
361.69	3359.65
361.91	3339.17
362.12	3335.57
362.34	3337.29
362.56	3348.02
362.78	3346.14
363.00	3333.60
363.21	3337.37
363.43	3344.33
363.65	3331.39
363.87	3341.06
364.09	3353.02
364.30	3351.38
364.52	3344.58
364.74	3333.52
364.96	3363.58
365.17	3351.05
365.39	3333.85
365.61	3334.26
365.83	3348.67
366.05	3351.62
366.26	3340.07
366.48	3348.92
366.70	3347.77
366.92	3357.11
367.13	3347.61
367.35	3325.74
367.57	3354.16
367.79	3347.28
368.01	3346.38
368.22	3353.92
368.44	3352.52
368.66	3340.89
368.88	3359.49
369.09	3349.66
369.31	3367.11
369.53	3352.61
369.75	3350.39
369.96	3371.69
370.18	3351.13
370.40	3368.01
370.62	3353.51
370.83	3340.73
371.05	3367.43
371.27	3364.98
371.49	3363.50
371.70	3373.74
371.92	3348.67
372.14	3374.64
372.36	3361.45
372.57	3376.36
372.79	3374.89
373.01	3364.16
373.22	3345.56
373.44	3360.39
373.66	3361.95
373.88	3371.69
374.09	3346.38
374.31	3368.99
374.53	3343.51
374.75	3379.48
374.96	3354.57
375.18	3380.38
375.40	3365.71
375.61	3366.61
375.83	3358.26
376.05	3364.57
376.27	3379.64
376.48	3381.20
376.70	3377.76
376.92	3368.01
377.13	3367.68
377.35	3371.78
377.57	3397.74
377.79	3368.58
378.00	3370.14
378.22	3384.64
378.44	3373.50
378.65	3381.03
378.87	3379.89
379.09	3406.67
379.30	3388.16
379.52	3388.49
379.74	3385.21
379.96	3401.27
380.17	3368.50
380.39	3386.77
380.61	3388.16
380.82	3388.32
381.04	3383.00
381.26	3404.22
381.47	3402.00
381.69	3426.66
381.91	3399.71
382.12	3407.57
382.34	3410.20
382.56	3391.85
382.77	3398.15
382.99	3412.41
383.21	3399.14
383.42	3424.94
383.64	3402.25
383.86	3409.54
384.07	3412.33
384.29	3415.44
384.51	3419.94
384.72	3437.15
384.94	3430.76
385.16	3429.04
385.37	3417.81
385.59	3418.31
385.81	3433.21
386.02	3424.53
386.24	3453.28
386.46	3431.66
386.67	3444.93
386.89	3455.50
387.11	3451.32
387.32	3460.08
387.54	3461.80
387.76	3462.46
387.97	3485.07
388.19	3455.74
388.40	3472.37
388.62	3470.49
388.84	3473.68
389.05	3480.97
389.27	3461.97
389.49	3493.59
389.70	3469.18
389.92	3493.92
390.14	3480.56
390.35	3500.88
390.57	3492.44
390.78	3495.96
391.00	3491.79
391.22	3483.59
391.43	3484.58
391.65	3503.75
391.86	3525.13
392.08	3524.39
392.30	3520.13
392.51	3515.63
392.73	3543.40
392.95	3521.69
393.16	3530.78
393.38	3543.31
393.59	3539.14
393.81	3581.08
394.03	3526.60
394.24	3547.00
394.46	3542.82
394.67	3563.47
394.89	3561.75
395.11	3572.39
395.32	3592.14
395.54	3574.28
395.75	3592.87
395.97	3573.46
396.19	3568.13
396.40	3606.23
396.62	3594.19
396.83	3605.57
397.05	3612.29
397.26	3619.83
397.48	3621.30
397.70	3620.24
397.91	3636.13
398.13	3629.41
398.34	3634.65
398.56	3665.54
398.78	3643.25
398.99	3687.98
399.21	3665.62
399.42	3671.43
399.64	3656.36
399.85	3675.45
400.07	3675.04
400.29	3712.64
400.50	3692.73
400.72	3706.33
400.93	3708.71
401.15	3688.06
401.36	3718.05
401.58	3737.87
401.79	3716.16
402.01	3761.14
402.23	3739.10
402.44	3780.96
402.66	3766.05
402.87	3788.50
403.09	3764.49
403.30	3777.19
403.52	3778.34
403.73	3768.67
403.95	3804.55
404.16	3805.78
404.38	3812.33
404.60	3811.68
404.81	3808.57
405.03	3842.40
405.24	3842.24
405.46	3845.27
405.67	3857.55
405.89	3870.42
406.10	3861.57
406.32	3863.78
406.53	3883.52
406.75	3914.08
406.96	3908.59
407.18	3907.28
407.39	3883.93
407.61	3907.11
407.82	3928.25
408.04	3957.00
408.25	3920.14
408.47	3945.45
408.68	3971.42
408.90	3949.06
409.12	3992.80
409.33	3989.85
409.55	3982.73
409.76	3987.72
409.98	3991.33
410.19	4030.73
410.41	4051.95
410.62	4046.95
410.84	4030.65
411.05	4043.67
411.27	4081.03
411.48	4080.95
411.70	4073.57
411.91	4121.00
412.12	4114.61
412.34	4102.16
412.55	4122.48
412.77	4132.31
412.98	4147.46
413.20	4128.21
413.41	4161.96
413.63	4177.77
413.84	4187.69
414.06	4179.25
414.27	4207.59
414.49	4217.01
414.70	4212.26
414.92	4250.93
415.13	4216.69
415.35	4274.93
415.56	4278.86
415.78	4258.87
415.99	4288.45
416.21	4318.76
416.42	4322.12
416.63	4366.60
416.85	4347.51
417.06	4330.63
417.28	4316.63
417.49	4372.82
417.71	4377.00
417.92	4384.13
418.14	4405.92
418.35	4420.50
418.57	4427.22
418.78	4431.72
418.99	4423.28
419.21	4475.39
419.42	4482.51
419.64	4477.92
419.85	4498.16
420.07	4548.37
420.28	4495.29
420.50	4531.50
420.71	4555.58
420.92	4565.74
421.14	4582.86
421.35	4583.85
421.57	4599.33
421.78	4609.57
422.00	4644.63
422.21	4671.25
422.42	4666.91
422.64	4636.27
422.85	4695.42
423.07	4734.99
423.28	4707.22
423.50	4726.96
423.71	4766.36
423.92	4797.00
424.14	4768.82
424.35	4812.32
424.57	4838.45
424.78	4849.26
424.99	4869.09
425.21	4900.79
425.42	4871.22
425.64	4885.96
425.85	4932.08
426.06	4922.25
426.28	4931.18
426.49	4984.26
426.71	4977.55
426.92	4981.97
427.13	5037.68
427.35	5071.26
427.56	5097.56
427.78	5063.64
427.99	5090.43
428.20	5142.94
428.42	5164.24
428.63	5174.15
428.84	5121.97
429.06	5188.98
429.27	5215.11
429.49	5235.26
429.70	5281.88
429.91	5249.60
430.13	5282.28
430.34	5327.83
430.56	5319.31
430.77	5376.74
430.98	5332.42
431.20	5391.81
431.41	5452.59
431.62	5470.70
431.84	5426.79
432.05	5489.54
432.26	5487.33
432.48	5462.42
432.69	5580.63
432.91	5538.36
433.12	5580.80
433.33	5586.37
433.55	5725.79
433.76	5681.07
433.97	5656.00
434.19	5655.42
434.40	5743.65
434.61	5755.20
434.83	5770.03
435.04	5747.50
435.25	5830.40
435.47	5813.69
435.68	5805.75
435.89	5918.38
436.11	5906.01
436.32	5942.71
436.53	5934.60
436.75	5947.87
436.96	5979.66
437.17	5946.73
437.39	6000.38
437.60	6038.64
437.81	6063.87
438.03	6104.91
438.24	6109.17
438.45	6186.67
438.67	6118.51
438.88	6244.26
439.09	6285.95
439.31	6270.63
439.52	6315.03
439.73	6264.57
439.94	6253.84
440.16	6352.72
440.37	6327.32
440.58	6416.37
440.80	6418.58
441.01	6405.88
441.22	6554.16
441.44	6519.67
441.65	6497.71
441.86	6500.74
442.08	6589.46
442.29	6584.14
442.50	6632.63
442.71	6615.10
442.93	6677.44
443.14	6661.22
443.35	6753.22
443.57	6656.47
443.78	6815.64
443.99	6807.04
444.20	6781.73
444.42	6867.99
444.63	6863.73
444.84	6942.12
445.06	6985.05
445.27	6910.83
445.48	6927.38
445.69	6971.86
445.91	7051.57
446.12	6997.34
446.33	7044.93
446.54	7171.17
446.76	7100.23
446.97	7149.46
447.18	7141.02
447.39	7209.42
447.61	7268.24
447.82	7285.12
448.03	7249.65
448.25	7313.05
448.46	7403.73
448.67	7439.62
448.88	7368.67
449.10	7495.81
449.31	7538.49
449.52	7490.98
449.73	7516.62
449.95	7667.51
450.16	7572.90
450.37	7751.89
450.58	7908.11
450.79	7673.17
451.01	7765.24
451.22	7704.46
451.43	7771.14
451.64	7892.38
451.86	7883.21
452.07	7911.79
452.28	7995.76
452.49	8104.14
452.71	8000.27
452.92	8018.62
453.13	8085.22
453.34	8145.59
453.55	8256.51
453.77	8310.98
453.98	8311.39
454.19	8231.93
454.40	8364.07
454.62	8444.27
454.83	8294.60
455.04	8523.81
455.25	8403.96
455.46	8714.03
455.68	8548.47
455.89	8563.29
456.10	8631.61
456.31	8673.23
456.52	8720.25
456.74	8752.12
456.95	8938.81
457.16	8878.60
457.37	8984.85
457.58	8941.51
457.80	8957.41
458.01	8949.13
458.22	9329.07
458.43	9145.41
458.64	9237.32
458.86	9094.95
459.07	9247.48
459.28	9233.06
459.49	9391.74
459.70	9584.00
459.91	9498.15
460.13	9503.56
460.34	9578.35
460.55	9525.27
460.76	9749.31
460.97	9730.39
461.19	9746.04
461.40	10009.08
461.61	9888.74
461.82	9930.27
462.03	10053.31
462.24	9994.17
462.46	10027.35
462.67	10069.62
462.88	10238.45
463.09	10192.41
463.30	10401.88
463.51	10243.28
463.72	10525.74
463.94	10569.32
464.15	10534.51
464.36	10492.65
464.57	10817.70
464.78	10776.00
464.99	10827.28
465.20	10750.93
465.42	10940.90
465.63	11012.50
465.84	10973.59
466.05	11130.87
466.26	11227.21
466.47	11303.56
466.68	11282.01
466.90	11443.64
467.11	11396.62
467.32	11592.08
467.53	11737.48
467.74	11527.03
467.95	11676.21
468.16	11872.73
468.37	11946.46
468.59	11996.67
468.80	12180.25
469.01	12058.44
469.22	12267.33
469.43	12538.65
469.64	12407.50
469.85	12553.80
470.06	12621.96
470.28	12786.45
470.49	12553.88
470.70	12849.69
470.91	13107.90
471.12	12947.42
471.33	13289.11
471.54	13142.55
471.75	13251.67
471.96	13588.93
472.17	13534.53
472.39	13882.77
472.60	13613.50
472.81	13910.54
473.02	13872.45
473.23	14134.26
473.44	14212.90
473.65	14156.46
473.86	14293.18
474.07	14410.08
474.28	14513.95
474.49	14890.78
474.71	14840.15
474.92	15056.83
475.13	14964.84
475.34	15074.03
475.55	15224.93
475.76	15315.86
475.97	15674.66
476.18	15611.83
476.39	15879.95
476.60	16061.15
476.81	16061.07
477.02	16262.18
477.23	16281.02
477.44	16319.20
477.65	16624.10
477.87	16780.48
478.08	16884.85
478.29	16943.50
478.50	17348.26
478.71	17250.86
478.92	17427.23
479.13	17483.35
479.34	17598.93
479.55	17819.38
479.76	17765.06
479.97	17906.37
480.18	18410.42
480.39	18137.22
480.60	18542.80
480.81	18647.08
481.02	18761.85
481.23	18854.91
481.44	19162.27
481.65	19358.22
481.86	19589.89
482.07	19246.56
482.28	20119.41
482.49	19857.19
482.71	19952.21
482.92	20244.01
483.13	20542.52
483.34	20375.98
483.55	20584.13
483.76	20635.25
483.97	20973.08
484.18	21046.81
484.39	21229.00
484.60	21198.69
484.81	21665.30
485.02	21581.90
485.23	21913.35
485.44	22048.02
485.65	22224.64
485.86	22082.35
486.07	22503.65
486.28	22496.20
486.49	22845.17
486.70	22959.45
486.91	23272.13
487.12	23126.07
487.33	23229.70
487.54	23732.44
487.75	23723.01
487.96	23849.25
488.17	23840.65
488.38	24164.88
488.59	24234.92
488.80	24363.46
489.01	24512.22
489.22	24808.77
489.43	24854.64
489.64	24741.92
489.85	25369.58
490.06	24977.03
490.26	25426.27
490.47	25378.84
490.68	25795.40
490.89	26094.97
491.10	25812.93
491.31	26211.54
491.52	26499.40
491.73	26347.45
491.94	26367.93
492.15	26685.93
492.36	26895.81
492.57	26931.36
492.78	27056.21
492.99	27226.19
493.20	27477.51
493.41	27541.41
493.62	27690.18
493.83	27697.79
494.04	27877.11
494.25	28177.26
494.46	28294.57
494.67	28145.64
494.88	28407.95
495.08	28533.86
495.29	28682.54
495.50	28929.03
495.71	28875.62
495.92	29240.41
496.13	29271.45
496.34	29196.42
496.55	29409.57
496.76	29889.28
496.97	29469.78
497.18	29955.39
497.39	29883.14
497.60	30479.76
497.81	30010.36
498.02	30397.02
498.22	30071.39
498.43	30707.49
498.64	30811.61
498.85	30767.70
499.06	30906.55
499.27	31335.56
499.48	30670.05
499.69	31140.02
499.90	31290.01
500.11	31572.06
500.32	32035.64
500.52	31657.99
500.73	32239.29
500.94	32239.94
501.15	32320.96
501.36	32355.94
501.57	32125.18
501.78	32447.28
501.99	32782.16
502.20	32743.99
502.41	32824.43
502.61	32861.62
502.82	33201.92
503.03	33054.05
503.24	33550.07
503.45	33222.80
503.66	33796.56
503.87	33579.48
504.08	34050.68
504.28	33836.38
504.49	34052.64
504.70	34222.46
504.91	34420.70
505.12	34091.96
505.33	34757.06
505.54	34666.70
505.75	34714.46
505.95	35028.29
506.16	34892.39
506.37	34794.99
506.58	35413.72
506.79	34951.78
507.00	35515.38
507.21	35265.20
507.41	35330.90
507.62	35551.34
507.83	36143.70
508.04	35726.16
508.25	36221.69
508.46	35958.64
508.67	36573.94
508.87	36300.82
509.08	36753.17
509.29	36603.67
509.50	36743.10
509.71	36895.88
509.92	37059.88
510.12	36814.86
510.33	37119.11
510.54	36974.60
510.75	37287.69
510.96	37487.08
511.17	37775.28
511.37	37660.43
511.58	37895.29
511.79	37702.04
512.00	37698.68
512.21	38221.24
512.42	38164.31
512.62	38382.62
512.83	38635.26
513.04	38479.61
513.25	38954.91
513.46	38092.87
513.66	39296.34
513.87	38879.70
514.08	39321.41
514.29	39081.80
514.50	39107.44
514.71	39545.13
514.91	39277.50
515.12	39353.19
515.33	39741.08
515.54	39638.84
515.75	40145.27
515.95	39935.88
516.16	40005.76
516.37	40469.17
516.58	40461.72
516.78	40240.21
516.99	40672.25
517.20	40584.11
517.41	40639.07
517.62	40823.47
517.82	40811.27
518.03	41345.46
518.24	41815.26
518.45	41082.42
518.66	41654.29
518.86	41374.46
519.07	41831.48
519.28	41153.77
519.49	41981.97
519.69	42142.12
519.90	42200.61
520.11	42346.67
520.32	42246.56
520.52	42677.05
520.73	42333.56
520.94	42910.02
521.15	42857.68
521.36	42429.82
521.56	43264.81
521.77	42564.65
521.98	43431.60
522.19	42764.54
522.39	43259.41
522.60	43206.98
522.81	43411.94
523.02	43223.77
523.22	43687.11
523.43	43944.74
523.64	43728.56
523.84	43901.73
524.05	44326.24
524.26	44274.46
524.47	43976.03
524.67	44241.70
524.88	44460.17
525.09	44815.62
525.30	44484.01
525.50	44561.26
525.71	44767.20
525.92	44832.58
526.13	45289.52
526.33	45115.85
526.54	44909.42
526.75	45230.70
526.95	45699.60
527.16	44802.35
527.37	45477.28
527.58	45714.68
527.78	45655.86
527.99	46021.79
528.20	46351.76
528.40	45895.64
528.61	45708.45
528.82	46255.75
529.03	46097.89
529.23	46145.32
529.44	46541.89
529.65	46562.21
529.85	46584.57
530.06	46515.92
530.27	46714.74
530.47	46363.31
530.68	47384.43
530.89	46405.17
531.09	47191.10
531.30	47023.82
531.51	46791.33
531.72	47389.75
531.92	47499.11
532.13	47765.51
532.34	47555.88
532.54	47559.32
532.75	47782.47
532.96	47639.77
533.16	48060.50
533.37	48167.57
533.58	47889.13
533.78	48317.73
533.99	48418.00
534.20	47910.84
534.40	48239.82
534.61	48466.49
534.82	48603.54
535.02	48748.29
535.23	48710.04
535.44	48929.33
535.64	48896.07
535.85	49033.29
536.06	49051.80
536.26	48869.37
536.47	49024.44
536.68	49607.70
536.88	48993.47
537.09	49665.29
537.29	49128.07
537.50	50009.10
537.71	49479.42
537.91	49670.86
538.12	49911.62
538.33	49678.32
538.53	50082.09
538.74	50193.50
538.95	50208.25
539.15	49855.75
539.36	50348.74
539.56	50648.15
539.77	50170.24
539.98	50315.56
540.18	50799.29
540.39	50428.20
540.60	50645.69
540.80	50951.17
541.01	50806.50
541.21	50900.87
541.42	51061.51
541.63	50951.41
541.83	51373.46
542.04	51303.58
542.25	51227.15
542.45	51444.98
542.66	51468.40
542.86	51672.05
543.07	50707.54
543.28	51848.10
543.48	51580.22
543.69	51916.91
543.89	51659.36
544.10	52240.08
544.31	52134.49
544.51	51923.13
544.72	52330.76
544.92	52082.55
545.13	52570.87
545.33	52350.18
545.54	52194.53
545.75	52519.67
545.95	52157.09
546.16	52236.23
546.36	52825.88
546.57	51906.91
546.78	51228.71
546.98	52002.92
547.19	51199.71
547.39	52397.12
547.60	52639.51
547.80	53342.30
548.01	53386.53
548.22	52942.04
548.42	53102.85
548.63	53391.12
548.83	53134.96
549.04	53331.73
549.24	52933.03
549.45	53246.70
549.65	53559.05
549.86	52961.70
550.07	53210.90
550.27	53614.10
550.48	53747.79
550.68	53615.58
550.89	53638.27
551.09	53974.79
551.30	53745.50
551.50	54069.32
551.71	53716.17
551.91	53670.63
552.12	53845.93
552.33	54265.85
552.53	53642.53
552.74	54517.83
552.94	54431.98
553.15	54221.69
553.35	54594.34
553.56	54152.88
553.76	54753.35
553.97	54191.06
554.17	54446.40
554.38	55212.75
554.58	54456.55
554.79	55100.03
554.99	54511.85
555.20	54657.83
555.40	55061.28
555.61	54788.65
555.81	54603.27
556.02	55562.87
556.22	55336.85
556.43	54993.70
556.63	55268.53
556.84	55227.98
557.04	55910.78
557.25	55160.65
557.45	55680.83
557.66	55463.25
557.86	55333.82
558.07	56096.40
558.27	55588.92
558.48	55531.66
558.68	55676.32
558.89	55710.32
559.09	55699.59
559.30	55393.70
559.50	55775.36
559.71	55337.84
559.91	56095.26
560.12	55870.14
560.32	55983.11
560.53	56080.18
560.73	55779.62
560.94	56317.17
561.14	55876.70
561.35	56545.48
561.55	56192.25
561.76	56466.68
561.96	55811.90
562.17	56402.94
562.37	56646.65
562.57	56369.03
562.78	56278.18
562.98	56616.92
563.19	56476.10
563.39	56699.74
563.60	56692.20
563.80	55999.17
564.01	56786.41
564.21	56452.83
564.42	56366.00
564.62	56561.87
564.82	56895.44
565.03	56585.21
565.23	56721.44
565.44	56909.12
565.64	56739.71
565.85	57152.99
566.05	56931.97
566.25	57239.91
566.46	56844.16
566.66	57023.64
566.87	57040.60
567.07	57035.52
567.28	57213.28
567.48	57601.58
567.68	56846.12
567.89	57875.76
568.09	57322.07
568.30	57347.22
568.50	57717.82
568.71	57582.49
568.91	57792.53
569.11	57274.72
569.32	57347.96
569.52	57525.64
569.73	56930.58
569.93	57537.35
570.13	57324.45
570.34	57289.88
570.54	57879.28
570.75	57648.35
570.95	57594.94
571.15	57441.02
571.36	57979.55
571.56	57438.31
571.77	57351.40
571.97	57023.81
572.17	57935.73
572.38	57815.88
572.58	58072.04
572.79	57770.50
572.99	57733.39
573.19	57791.63
573.40	57529.41
573.60	57687.10
573.81	57647.13
574.01	57904.60
574.21	57864.70
574.42	58039.27
574.62	57743.05
574.82	58323.86
575.03	57994.22
575.23	58465.08
575.43	58111.85
575.64	58100.22
575.84	58620.65
576.05	57966.36
576.25	58114.96
576.45	58015.43
576.66	58505.55
576.86	57986.02
577.06	58370.06
577.27	58181.40
577.47	58249.06
577.67	58192.21
577.88	57774.26
578.08	58436.33
578.28	58691.51
578.49	58397.91
578.69	58605.66
578.89	58297.40
579.10	58481.30
579.30	59151.15
579.50	58662.34
579.71	58215.07
579.91	58851.58
580.11	58476.88
580.32	58320.83
580.52	58325.66
580.72	58876.32
580.93	58264.06
581.13	58372.84
581.33	58884.18
581.54	58461.23
581.74	58638.34
581.94	58797.26
582.15	59071.69
582.35	58695.77
582.55	58817.33
582.76	58422.40
582.96	59062.68
583.16	58516.45
583.37	58880.00
583.57	58583.21
583.77	59098.89
583.97	57995.12
584.18	59272.15
584.38	58908.84
584.58	58688.72
584.79	59034.67
584.99	58786.37
585.19	58708.71
585.40	58695.03
585.60	59000.34
585.80	58554.21
586.00	58961.43
586.21	58896.22
586.41	59026.64
586.61	59248.72
586.82	59017.46
587.02	58731.40
587.22	59071.45
587.42	58375.22
587.63	59173.27
587.83	58494.08
588.03	58921.78
588.23	58546.02
588.44	58923.67
588.64	58634.49
588.84	58839.13
589.05	58968.15
589.25	59080.87
589.45	59070.71
589.65	58973.47
589.86	59243.80
590.06	59205.30
590.26	58798.33
590.46	59258.06
590.67	58432.56
590.87	59286.16
591.07	59450.65
591.27	58822.58
591.48	59326.05
591.68	58594.19
591.88	59721.55
592.08	58816.52
592.29	59530.52
592.49	59360.46
592.69	59609.41
592.89	59180.07
593.10	59393.14
593.30	59073.09
593.50	59790.61
593.70	58784.81
593.90	59709.84
594.11	59355.95
594.31	59451.47
594.51	59700.01
594.71	59584.42
594.92	59713.69
595.12	59271.90
595.32	59401.01
595.52	59589.09
595.72	58863.62
595.93	59728.68
596.13	59320.23
596.33	59037.37
596.53	59644.39
596.73	59537.73
596.94	59265.59
597.14	59685.76
597.34	59442.87
597.54	59736.22
597.74	59242.25
597.95	59350.54
598.15	59254.29
598.35	59462.94
598.55	59502.18
598.75	59356.03
598.96	60008.60
599.16	59523.23
599.36	59694.77
599.56	59531.34
599.76	59451.14
599.97	59960.02
600.17	59668.80
600.37	59879.17
600.57	59131.90
600.77	59994.43
600.97	59585.49
601.18	60209.87
601.38	59653.56
601.58	60017.20
601.78	59737.28
601.98	59549.12
602.18	59839.84
602.39	60159.41
602.59	59796.18
602.79	59501.36
602.99	59616.12
603.19	59629.80
603.39	59436.07
603.60	59555.67
603.80	59679.20
604.00	59542.64
604.20	59698.45
604.40	59905.87
604.60	59629.64
604.80	59580.74
605.01	59700.50
605.21	59453.93
605.41	59414.93
605.61	59049.08
605.81	59508.16
606.01	59949.78
606.21	59492.59
606.42	59947.40
606.62	59578.44
606.82	60075.20
607.02	59460.72
607.22	59739.08
607.42	59937.82
607.62	59251.91
607.82	59609.08
608.03	59586.22
608.23	59414.60
608.43	59218.82
608.63	59808.14
608.83	59688.54
609.03	59705.50
609.23	59871.71
609.43	59928.23
609.63	59755.55
609.84	59414.69
610.04	60011.22
610.24	59871.14
610.44	59851.89
610.64	59458.76
610.84	59662.41
611.04	60105.83
611.24	59734.01
611.44	58911.46
611.64	59619.57
611.85	59746.21
612.05	59636.11
612.25	59829.28
612.45	59394.70
612.65	59604.57
612.85	59614.57
613.05	59218.16
613.25	59950.43
613.45	59674.78
613.65	59682.07
613.85	59140.75
614.05	59727.70
614.25	59888.91
614.46	59617.11
614.66	59332.03
614.86	59018.28
615.06	59235.12
615.26	59651.27
615.46	58846.50
615.66	59663.88
615.86	59427.22
616.06	59035.24
616.26	59212.92
616.46	59877.36
616.66	59262.65
616.86	59842.88
617.06	59239.79
617.26	59748.18
617.46	59523.56
617.66	59213.49
617.86	59026.96
618.07	59383.31
618.27	59082.10
618.47	59105.85
618.67	59138.87
618.87	59442.95
619.07	59012.47
619.27	58986.09
619.47	58993.21
619.67	59441.15
619.87	58912.11
620.07	59298.69
620.27	59210.14
620.47	58825.85
620.67	59223.41
620.87	59124.78
621.07	59304.92
621.27	59168.93
621.47	58739.27
621.67	59210.30
621.87	58857.64
622.07	59372.83
622.27	59250.03
622.47	59003.45
622.67	59111.59
622.87	58691.75
623.07	59233.32
623.27	59501.44
623.47	58485.07
623.67	58993.87
623.87	59273.29
624.07	59115.11
624.27	58690.77
624.47	58812.50
624.67	58607.30
624.87	58713.22
625.07	58289.04
625.27	58767.86
625.47	58222.44
625.67	58198.77
625.87	58541.92
626.07	58495.64
626.27	58630.40
626.47	58526.03
626.67	58407.50
626.87	58075.48
627.07	58665.21
627.27	58519.07
627.47	58607.46
627.67	58461.73
627.87	58447.31
628.07	58837.57
628.27	58675.04
628.47	58389.15
628.67	58875.01
628.86	58965.69
629.06	58564.12
629.26	58275.52
629.46	58759.66
629.66	58430.19
629.86	58034.27
630.06	58576.33
630.26	58411.84
630.46	58757.45
630.66	58039.84
630.86	58170.34
631.06	58059.26
631.26	57822.19
631.46	58317.22
631.66	58225.72
631.86	57910.99
632.06	58252.10
632.26	57968.98
632.45	57953.34
632.65	58068.93
632.85	58136.43
633.05	58029.36
633.25	58028.46
633.45	57640.00
633.65	57621.16
633.85	58232.03
634.05	57270.95
634.25	57594.21
634.45	57548.58
634.65	57833.82
634.84	57542.68
635.04	57757.55
635.24	57396.54
635.44	57799.33
635.64	57507.86
635.84	57816.21
636.04	57497.13
636.24	57519.41
636.44	57575.69
636.64	56896.67
636.84	58019.69
637.03	57216.81
637.23	57616.57
637.43	57659.66
637.63	57501.39
637.83	57719.62
638.03	57589.78
638.23	57022.90
638.43	57657.28
638.62	57950.22
638.82	56725.05
639.02	57496.23
639.22	57074.51
639.42	57264.40
639.62	56808.69
639.82	56888.39
640.02	57000.21
640.21	57162.33
640.41	56491.58
640.61	57045.19
640.81	56889.46
641.01	56872.26
641.21	56723.74
641.41	57341.57
641.61	56694.00
641.80	56780.43
642.00	56972.03
642.20	57085.24
642.40	56295.47
642.60	56846.94
642.80	56993.41
642.99	56589.14
643.19	57245.97
643.39	56533.93
643.59	56953.03
643.79	56665.00
643.99	56992.59
644.19	56625.03
644.38	56158.50
644.58	56395.08
644.78	56174.14
644.98	56174.23
645.18	56346.42
645.38	56558.92
645.57	56097.96
645.77	56194.38
645.97	56022.27
646.17	56336.18
646.37	56284.16
646.56	56031.93
646.76	56200.69
646.96	56283.34
647.16	56190.61
647.36	56414.41
647.55	56117.70
647.75	56171.93
647.95	55783.23
648.15	56138.76
648.35	55941.74
648.55	55971.81
648.74	55783.47
648.94	55797.32
649.14	56131.71
649.34	55607.27
649.54	55563.69
649.73	55680.26
649.93	55410.25
650.13	55701.15
650.33	55328.82
650.52	55563.36
650.72	55909.55
650.92	55441.14
651.12	55234.04
651.32	55512.24
651.51	55753.16
651.71	55694.84
651.91	55322.35
652.11	55194.72
652.30	55150.08
652.50	55660.10
652.70	55672.15
652.90	55348.57
653.10	55565.08
653.29	55084.38
653.49	55593.67
653.69	55035.72
653.89	55110.51
654.08	54880.89
654.28	55472.35
654.48	55088.88
654.68	55245.68
654.87	54864.18
655.07	54753.51
655.27	55214.30
655.47	54894.57
655.66	54871.47
655.86	54689.69
656.06	55202.83
656.26	54375.54
656.45	54674.46
656.65	54782.18
656.85	54555.51
657.04	54113.56
657.24	54125.77
657.44	54022.79
657.64	54564.03
657.83	53510.64
658.03	54192.69
658.23	54068.91
658.43	53925.39
658.62	54077.84
658.82	53853.55
659.02	53779.41
659.21	53804.07
659.41	53623.03
659.61	54218.99
659.81	53942.92
660.00	53679.06
660.20	53928.59
660.40	53571.34
660.59	53655.80
660.79	53101.70
660.99	53491.71
661.19	53351.14
661.38	53273.81
661.58	52569.31
661.78	53116.04
661.97	52976.94
662.17	53671.77
662.37	53094.98
662.56	53198.20
662.76	53196.97
662.96	53223.92
663.15	53276.27
663.35	53291.10
663.55	53039.11
663.74	52744.21
663.94	53304.37
664.14	52662.21
664.33	53017.65
664.53	52744.78
664.73	53233.75
664.93	52448.81
665.12	52875.93
665.32	52568.57
665.52	52634.52
665.71	52327.16
665.91	52554.97
666.10	52286.28
666.30	52570.21
666.50	52031.35
666.69	52078.94
666.89	52335.35
667.09	52644.92
667.28	52264.65
667.48	52041.75
667.68	52278.01
667.87	52173.56
668.07	51937.22
668.27	52359.68
668.46	52347.64
668.66	52217.14
668.86	52574.55
669.05	52113.68
669.25	52311.84
669.44	51853.83
669.64	51778.71
669.84	51712.28
670.03	52128.26
670.23	51764.29
670.43	51869.56
670.62	51815.49
670.82	51636.99
671.01	51916.58
671.21	51301.04
671.41	51327.18
671.60	51523.21
671.80	51774.78
672.00	51353.64
672.19	51651.74
672.39	51513.46
672.58	51478.97
672.78	51325.29
672.98	51770.77
673.17	51449.97
673.37	50669.70
673.56	51057.99
673.76	51233.13
673.96	51413.76
674.15	51060.86
674.35	51209.38
674.54	51030.14
674.74	51007.37
674.94	50879.41
675.13	51134.18
675.33	50592.04
675.52	51113.86
675.72	50904.48
675.91	50757.84
676.11	51086.74
676.31	50411.57
676.50	50567.87
676.70	50515.36
676.89	50644.46
677.09	50667.65
677.28	50524.95
677.48	49955.86
677.68	50422.55
677.87	50119.61
678.07	49903.35
678.26	50065.05
678.46	50029.66
678.65	49892.29
678.85	50263.46
679.04	49794.23
679.24	49970.93
679.44	49781.70
679.63	50005.33
679.83	49792.51
680.02	49929.15
680.22	49520.54
680.41	49613.85
680.61	49481.46
680.80	49291.41
681.00	49478.68
681.19	49424.78
681.39	49259.87
681.59	49247.18
681.78	49061.30
681.98	49603.93
682.17	49006.91
682.37	49430.67
682.56	49075.23
682.76	49429.28
682.95	49135.44
683.15	49235.79
683.34	49014.77
683.54	49180.25
683.73	49286.01
683.93	48611.98
684.12	49015.10
684.32	49194.50
684.51	48500.49
684.71	48879.36
684.90	48832.67
685.10	48722.24
685.29	48542.59
685.49	48933.18
685.68	48874.45
685.88	48779.01
686.07	48403.25
686.27	48815.71
686.46	48562.34
686.66	48363.11
686.85	48563.73
687.05	48234.91
687.24	48079.26
687.44	48332.39
687.63	48277.18
687.83	47737.41
688.02	48215.49
688.22	48240.72
688.41	47864.80
688.61	47995.79
688.80	48157.66
689.00	47646.16
689.19	47464.62
689.39	47976.62
689.58	47865.54
689.77	47655.99
689.97	47801.07
690.16	47533.52
690.36	47095.34
690.55	47055.03
690.75	47596.51
690.94	47101.48
691.14	47310.21
691.33	46787.81
691.53	47239.35
691.72	47016.78
691.91	47044.14
692.11	46998.18
692.30	47096.97
692.50	47156.77
692.69	46651.50
692.89	46756.11
693.08	46616.03
693.28	46616.60
693.47	46685.99
693.66	46589.32
693.86	46458.91
694.05	46355.85
694.25	46368.22
694.44	46501.75
694.64	46470.54
694.83	46348.40
695.02	46408.36
695.22	46546.32
695.41	46222.74
695.61	46062.26
695.80	46046.78
695.99	46091.42
696.19	46086.92
696.38	46009.67
696.58	45634.40
696.77	46221.43
696.96	46040.47
697.16	45783.98
697.35	45709.11
697.55	45588.11
697.74	45321.06
697.93	45825.84
698.13	45361.44
698.32	45619.24
698.52	45292.79
698.71	44755.41
698.90	45571.24
699.10	45215.87
699.29	45275.84
699.49	45684.53
699.68	45182.94
699.87	45070.63
700.07	45385.94
700.26	45129.29
700.45	45005.42
700.65	44783.59
700.84	45243.15
701.04	44928.17
701.23	45228.98
701.42	45027.62
701.62	44878.37
701.81	44924.41
702.00	44864.69
702.20	44413.81
702.39	44467.22
702.58	44602.30
702.78	44217.69
702.97	44117.67
703.17	44118.16
703.36	44184.11
703.55	44024.37
703.75	43976.52
703.94	44264.31
704.13	44082.53
704.33	44091.05
704.52	44244.73
704.71	43986.93
704.91	43802.53
705.10	43614.03
705.29	43700.95
705.49	43878.88
705.68	44004.05
705.87	43935.65
706.07	43453.80
706.26	43937.04
706.45	43382.78
706.65	43216.15
706.84	43613.13
707.03	43882.07
707.23	43169.30
707.42	42993.09
707.61	43396.79
707.80	43028.56
708.00	43122.44
708.19	42958.77
708.38	43347.63
708.58	42534.02
708.77	43125.22
708.96	42372.39
709.16	42304.32
709.35	43048.22
709.54	42473.97
709.74	42413.27
709.93	42066.51
710.12	42635.19
710.31	42891.10
710.51	42441.78
710.70	42494.94
710.89	42637.48
711.09	42028.58
711.28	42024.73
711.47	42279.74
711.66	42000.48
711.86	41880.14
712.05	42012.52
712.24	42155.63
712.43	41764.06
712.63	41348.24
712.82	41831.56
713.01	41500.69
713.21	41173.92
713.40	41301.14
713.59	41645.20
713.78	41040.80
713.98	41329.81
714.17	41149.75
714.36	41212.01
714.55	40913.75
714.75	41152.62
714.94	41210.87
715.13	41491.68
715.32	41056.37
715.52	41249.70
715.71	40852.31
715.90	40895.07
716.09	40703.38
716.29	41038.67
716.48	40828.80
716.67	40292.80
716.86	40650.62
717.06	40502.76
717.25	40639.48
717.44	40674.13
717.63	40682.08
717.82	40160.34
718.02	40263.48
718.21	40439.52
718.40	40371.36
718.59	40277.16
718.79	39972.83
718.98	40027.88
719.17	40379.06
719.36	40440.58
719.55	40177.46
719.75	40018.13
719.94	39831.11
720.13	40000.19
720.32	39774.42
720.51	39488.52
720.71	39413.98
720.90	39023.80
721.09	39432.82
721.28	39136.85
721.47	39590.68
721.67	39387.11
721.86	39331.57
722.05	39237.36
722.24	38746.67
722.43	39224.91
722.63	38704.32
722.82	38861.03
723.01	38778.29
723.20	38558.58
723.39	38443.65
723.58	38610.93
723.78	38090.25
723.97	38550.31
724.16	38145.14
724.35	38268.18
724.54	38196.83
724.73	38438.24
724.93	38205.76
725.12	38590.86
725.31	37898.40
725.50	38295.46
725.69	38438.41
725.88	38153.17
726.08	37683.20
726.27	38152.27
726.46	37552.21
726.65	38245.73
726.84	37577.85
727.03	37620.37
727.23	37865.80
727.42	37469.88
727.61	37429.91
727.80	37243.95
727.99	37372.23
728.18	37416.06
728.37	37230.11
728.56	37099.53
728.76	36963.30
728.95	37116.07
729.14	37048.08
729.33	36922.09
729.52	36948.47
729.71	37022.61
729.90	37037.84
730.09	36764.81
730.29	37085.11
730.48	36590.73
730.67	36953.22
730.86	36583.19
731.05	36916.68
731.24	36527.90
731.43	36512.33
731.62	36202.03
731.81	36111.51
732.01	36584.34
732.20	36044.74
732.39	36320.40
732.58	36212.27
732.77	35598.37
732.96	36046.30
733.15	36161.56
733.34	35776.87
733.53	35928.50
733.72	35989.04
733.92	35872.14
734.11	35927.52
734.30	35952.01
734.49	36183.92
734.68	35774.57
734.87	35563.71
735.06	35549.71
735.25	35656.20
735.44	35396.44
735.63	35495.48
735.82	35638.59
736.01	35283.47
736.20	35298.22
736.40	35637.11
736.59	35397.91
736.78	35555.85
736.97	35063.93
737.16	35218.84
737.35	35154.69
737.54	35179.43
737.73	34945.06
737.92	35139.54
738.11	35179.27
738.30	34973.74
738.49	34922.13
738.68	34848.89
738.87	35046.40
739.06	34666.21
739.25	34747.48
739.44	34653.84
739.63	34576.10
739.82	34304.62
740.01	34569.79
740.20	34153.65
740.39	34246.13
740.59	34197.15
740.78	34359.10
740.97	34180.35
741.16	33984.57
741.35	34224.83
741.54	34051.58
741.73	34092.95
741.92	33989.24
742.11	34012.26
742.30	34026.59
742.49	33605.53
742.68	33822.12
742.87	33671.15
743.06	33327.25
743.25	33554.25
743.44	33373.86
743.63	33537.37
743.82	33318.16
744.01	33273.27
744.20	33138.59
744.39	33314.64
744.58	33254.75
744.77	32965.33
744.96	32761.93
745.15	32998.59
745.34	32723.02
745.53	32892.59
745.72	32569.42
745.91	32608.33
746.10	32419.51
746.29	32669.53
746.48	32755.70
746.67	32677.23
746.86	32732.03
747.04	32583.92
747.23	32484.63
747.42	32684.60
747.61	32295.24
747.80	32709.91
747.99	32090.20
748.18	32526.00
748.37	32348.08
748.56	31906.29
748.75	32204.55
748.94	32054.72
749.13	32119.11
749.32	31907.60
749.51	31948.31
749.70	32024.09
749.89	31839.11
750.08	31957.32
750.27	31600.73
750.46	31857.22
750.65	32142.87
750.84	31724.18
751.02	31829.45
751.21	31657.75
751.40	31670.20
751.59	31698.21
751.78	31524.63
751.97	31520.04
752.16	31299.68
752.35	31527.00
752.54	31113.15
752.73	31556.82
752.92	31208.42
753.11	31188.68
753.30	31275.92
753.49	31369.72
753.67	31148.70
753.86	30929.90
754.05	31099.96
754.24	30951.53
754.43	30897.13
754.62	30893.12
754.81	30602.63
755.00	30686.35
755.19	30606.89
755.38	30224.91
755.56	30510.56
755.75	30774.74
755.94	30502.86
756.13	30576.75
756.32	30519.08
756.51	30381.45
756.70	30499.58
756.89	30379.49
757.08	30334.10
757.26	30295.19
757.45	30294.95
757.64	30093.59
757.83	30401.69
758.02	30186.73
758.21	30223.02
758.40	30377.03
758.59	30229.00
758.77	30009.05
758.96	30026.25
759.15	30102.11
759.34	29749.29
759.53	29807.37
759.72	29785.33
759.91	29467.24
760.09	29678.75
760.28	29708.98
760.47	29428.57
760.66	29687.19
760.85	29348.05
761.04	29645.90
761.23	29477.48
761.41	29381.88
761.60	29464.21
761.79	29288.90
761.98	29238.44
762.17	29617.64
762.36	29353.62
762.54	29581.93
762.73	29471.91
762.92	29225.50
763.11	29475.68
763.30	29412.19
763.49	29271.45
763.67	29144.40
763.86	29104.83
764.05	29215.91
764.24	29020.21
764.43	29255.48
764.61	28856.54
764.80	28899.38
764.99	29226.32
765.18	28836.30
765.37	28932.88
765.55	28941.98
765.74	28750.37
765.93	28512.31
766.12	28840.72
766.31	28790.59
766.49	28804.11
766.68	28910.68
766.87	28771.09
767.06	28779.20
767.25	28795.01
767.43	28720.80
767.62	28569.25
767.81	28679.43
768.00	28365.35
768.19	28305.22
768.37	28366.99
768.56	28389.84
768.75	28439.98
768.94	28409.83
769.12	28114.35
769.31	28090.68
769.50	28005.81
769.69	28091.33
769.88	27686.82
770.06	28233.62
770.25	27844.35
770.44	27866.06
770.63	28149.58
770.81	27976.40
771.00	27733.92
771.19	27809.45
771.38	27731.95
771.56	27909.55
771.75	27502.17
771.94	27812.15
772.13	27736.30
772.31	27543.13
772.50	27823.38
772.69	27606.86
772.88	27888.01
773.06	27494.80
773.25	27672.07
773.44	27604.16
773.62	27502.09
773.81	27526.75
774.00	27269.44
774.19	27349.48
774.37	27211.20
774.56	27428.20
774.75	27024.83
774.94	27336.12
775.12	27073.41
775.31	27286.32
775.50	27275.99
775.68	27129.20
775.87	27135.01
776.06	26975.60
776.25	27223.81
776.43	26977.81
776.62	27172.86
776.81	26797.26
776.99	27079.72
777.18	27001.16
777.37	26628.35
777.55	26767.69
777.74	26696.75
777.93	26592.63
778.12	26665.21
778.30	26551.75
778.49	26507.76
778.68	26678.64
778.86	26532.91
779.05	26674.79
779.24	26624.00
779.42	26551.34
779.61	26496.13
779.80	26613.68
779.98	26739.34
780.17	26844.69
780.36	26451.32
780.54	26696.75
780.73	26159.44
780.92	26496.05
781.10	26332.95
781.29	26196.14
781.48	26096.53
781.66	26155.10
781.85	26122.74
782.04	25948.58
782.22	26106.11
782.41	25982.17
782.60	26118.32
782.78	26066.55
782.97	26180.25
783.16	25847.25
783.34	25851.18
783.53	25890.34
783.71	25750.75
783.90	25766.89
784.09	25760.74
784.27	25811.37
784.46	25774.92
784.65	25913.36
784.83	25748.29
785.02	25756.73
785.20	26014.53
785.39	25560.78
785.58	25935.39
785.76	25840.04
785.95	25808.67
786.14	25934.00
786.32	25884.52
786.51	25708.73
786.69	25868.63
786.88	25782.70
787.07	25710.53
787.25	25720.28
787.44	25732.56
787.62	25559.22
787.81	25703.97
788.00	25633.44
788.18	25499.34
788.37	25525.55
788.55	26040.66
788.74	25796.13
788.93	26010.51
789.11	26236.94
789.30	26155.59
789.48	25977.50
789.67	26138.88
789.86	26066.38
790.04	26179.10
790.23	25996.51
790.41	25902.46
790.60	26072.77
790.78	26022.64
790.97	25705.69
791.16	25873.05
791.34	26098.90
791.53	25647.45
791.71	25976.68
791.90	25691.28
792.08	25844.71
792.27	25760.09
792.46	25623.69
792.64	25741.41
792.83	25604.93
793.01	25733.96
793.20	25645.48
793.38	25615.01
793.57	25626.23
793.75	25631.31
793.94	25733.55
794.12	26021.90
794.31	25689.72
794.50	25848.56
794.68	25958.91
794.87	25835.62
795.05	25947.44
795.24	25774.42
795.42	25746.16
795.61	26029.93
795.79	26070.07
795.98	25712.33
796.16	25914.34
796.35	25975.78
796.53	25772.05
796.72	26060.07
796.90	26118.16
797.09	26052.46
797.27	26051.88
797.46	25947.19
797.64	26011.74
797.83	25891.65
798.01	25925.73
798.20	26036.07
798.38	25838.73
798.57	26084.57
798.75	25944.57
798.94	25645.57
799.12	26294.69
799.31	25935.80
799.49	25911.88
799.68	25824.64
799.86	25894.27
800.05	25923.76
800.23	25951.94
800.42	25892.63
800.60	26201.63
800.79	25840.20
800.97	25965.29
801.16	26124.30
801.34	25813.09
801.53	25817.10
801.71	25979.96
801.90	25695.62
802.08	26018.54
802.27	25859.87
802.45	25579.62
802.64	25650.32
802.82	25648.68
803.00	25318.63
803.19	25490.41
803.37	25747.96
803.56	25417.34
803.74	25512.94
803.93	25557.42
804.11	25516.79
804.30	25425.78
804.48	25708.89
804.67	25725.27
804.85	25633.69
805.03	25759.60
805.22	25598.30
805.40	25448.96
805.59	25635.57
805.77	25683.17
805.96	25644.17
806.14	25464.20
806.32	25634.34
806.51	25661.70
806.69	25295.45
806.88	25172.81
807.06	25111.21
807.25	25130.05
807.43	25171.83
807.61	25292.17
807.80	25180.43
807.98	25394.48
808.17	25288.81
808.35	25252.60
808.53	25447.49
808.72	25196.32
808.90	25115.31
809.09	25198.29
809.27	25258.66
809.45	25036.09
809.64	25258.17
809.82	25007.99
810.01	25057.06
810.19	25015.86
810.37	24903.30
810.56	24831.54
810.74	24880.36
810.93	24583.82
811.11	24690.31
811.29	24596.84
811.48	24727.67
811.66	24776.08
811.84	24758.88
812.03	24705.06
812.21	24757.89
812.40	24853.25
812.58	24913.70
812.76	24592.09
812.95	24805.98
813.13	24487.64
813.31	24604.87
813.50	24612.73
813.68	24522.30
813.86	24606.10
814.05	24611.51
814.23	24319.87
814.42	24508.78
814.60	24330.93
814.78	24376.40
814.97	24439.31
815.15	24454.71
815.33	24528.19
815.52	24328.23
815.70	24326.35
815.88	24233.37
816.07	23970.74
816.25	23975.65
816.43	23976.14
816.62	23737.02
816.80	23914.21
816.98	23887.43
817.17	23844.17
817.35	23887.67
817.53	23868.58
817.72	23949.68
817.90	23714.09
818.08	23707.86
818.26	23832.38
818.45	23618.65
818.63	23836.96
818.81	23858.67
819.00	23533.78
819.18	23716.87
819.36	23659.69
819.55	23723.51
819.73	23476.68
819.91	23686.56
820.09	23624.71
820.28	23714.58
820.46	23547.54
820.64	23852.20
820.83	23436.14
821.01	23481.60
821.19	23396.49
821.38	23460.38
821.56	23300.64
821.74	23425.32
821.92	23278.28
822.11	23525.59
822.29	23131.40
822.47	23207.01
822.65	23232.98
822.84	23255.67
823.02	23034.90
823.20	23390.59
823.39	23126.89
823.57	23274.43
823.75	23201.52
823.93	23113.05
824.12	23222.82
824.30	22966.09
824.48	23062.34
824.66	23216.51
824.85	22793.32
825.03	23070.70
825.21	23077.90
825.39	22920.54
825.58	23000.25
825.76	22917.10
825.94	22902.11
826.12	22817.65
826.31	22736.88
826.49	22806.34
826.67	22747.85
826.85	22603.27
827.03	22697.80
827.22	22737.70
827.40	22549.77
827.58	22560.75
827.76	22715.91
827.95	22698.62
828.13	22662.66
828.31	22676.75
828.49	22743.35
828.67	22680.93
828.86	22619.32
829.04	22704.93
829.22	22647.59
829.40	22575.74
829.58	22518.32
829.77	22482.85
829.95	22397.16
830.13	22380.78
830.31	22303.36
830.49	22309.18
830.68	22250.44
830.86	22093.40
831.04	22044.42
831.22	22106.10
831.40	22049.66
831.59	22194.82
831.77	22028.44
831.95	22226.11
832.13	21924.08
832.31	22079.89
832.50	21987.81
832.68	21856.33
832.86	21873.04
833.04	22055.89
833.22	21805.38
833.40	22080.87
833.59	21779.41
833.77	22079.15
833.95	21554.63
834.13	22158.45
834.31	21866.98
834.49	21904.91
834.67	21809.31
834.86	21830.94
835.04	21720.10
835.22	21717.81
835.40	21652.27
835.58	21619.34
835.76	21658.83
835.95	21757.29
836.13	21740.99
836.31	21610.66
836.49	21774.41
836.67	21754.92
836.85	21606.97
837.03	21472.13
837.21	21537.75
837.40	21417.41
837.58	21261.27
837.76	21387.35
837.94	21294.29
838.12	21489.83
838.30	21262.99
838.48	21246.94
838.66	21209.09
838.85	21113.90
839.03	21123.41
839.21	21102.52
839.39	21027.31
839.57	21148.14
839.75	20979.06
839.93	21043.45
840.11	21066.14
840.29	20998.56
840.47	21025.51
840.66	21052.30
840.84	20987.83
841.02	20883.22
841.20	20903.62
841.38	20833.58
841.56	20807.03
841.74	20949.57
841.92	20734.37
842.10	20670.23
842.28	20718.56
842.46	20607.15
842.65	20635.58
842.83	20728.56
843.01	20754.61
843.19	20464.37
843.37	20626.40
843.55	20487.22
843.73	20667.53
843.91	20609.36
844.09	20589.87
844.27	20795.40
844.45	20508.60
844.63	20578.56
844.81	20623.95
844.99	20597.90
845.17	20491.89
845.35	20579.71
845.54	20368.28
845.72	20434.88
845.90	20344.11
846.08	20342.23
846.26	20127.27
846.44	20281.03
846.62	20006.28
846.80	20038.64
846.98	20035.36
847.16	20004.39
847.34	20121.62
847.52	20031.59
847.70	19998.82
847.88	20011.28
848.06	19930.75
848.24	20054.61
848.42	20068.46
848.60	19905.11
848.78	19979.08
848.96	20057.81
849.14	20004.72
849.32	20185.27
849.50	19920.59
849.68	20159.88
849.86	20039.46
850.04	19904.13
850.22	19883.40
850.40	19676.72
850.58	19829.50
850.76	20127.93
850.94	19594.06
851.12	19847.36
851.30	19638.96
851.48	19769.29
851.66	19583.50
851.84	19580.14
852.02	19613.40
852.20	19726.77
852.38	19491.09
852.56	19670.58
852.74	19610.04
852.92	19570.06
853.10	19475.36
853.28	19567.03
853.46	19175.30
853.64	19486.01
853.82	19278.76
854.00	19272.94
854.18	19238.70
854.36	19081.83
854.54	19232.64
854.72	19048.81
854.90	18960.50
855.07	19098.54
855.25	19078.79
855.43	19068.64
855.61	19024.73
855.79	18958.29
855.97	19065.20
856.15	19006.54
856.33	18936.58
856.51	19076.26
856.69	18896.77
856.87	19012.85
857.05	18839.10
857.23	18946.09
857.41	18701.80
857.59	18687.96
857.77	18601.37
857.94	18486.11
858.12	18605.14
858.30	18593.59
858.48	18489.23
858.66	18403.70
858.84	18585.97
859.02	18406.24
859.20	18417.30
859.38	18678.79
859.56	18544.85
859.74	18547.96
859.92	18601.78
860.09	18518.72
860.27	18607.60
860.45	18479.48
860.63	18510.52
860.81	18526.83
860.99	18309.41
861.17	18175.80
861.35	17960.44
861.53	17781.37
861.70	17764.90
861.88	18104.78
862.06	18135.75
862.24	17953.72
862.42	17857.47
862.60	18066.93
862.78	18058.58
862.96	18166.38
863.14	17981.00
863.31	17917.19
863.49	17922.51
863.67	17899.00
863.85	17866.48
864.03	17951.59
864.21	17907.27
864.39	17890.81
864.56	17699.04
864.74	17831.42
864.92	17669.71
865.10	17616.46
865.28	17644.97
865.46	17769.98
865.64	17469.01
865.81	17665.45
865.99	17389.38
866.17	17615.23
866.35	17521.36
866.53	17607.94
866.71	17591.07
866.88	17660.78
867.06	17407.82
867.24	17553.22
867.42	17435.50
867.60	17441.24
867.78	17410.44
867.95	17614.25
868.13	17403.39
868.31	17551.83
868.49	17467.13
868.67	17384.80
868.84	17299.52
869.02	17372.02
869.20	17072.03
869.38	17212.77
869.56	17064.82
869.73	17025.50
869.91	17171.15
870.09	17134.37
870.27	16950.22
870.45	16969.63
870.62	16810.46
870.80	16956.36
870.98	16892.38
871.16	16912.62
871.34	16910.65
871.51	16996.01
871.69	16776.55
871.87	16871.82
872.05	16774.83
872.23	16763.20
872.40	16702.09
872.58	16794.24
872.76	16679.15
872.94	16698.24
873.11	16757.30
873.29	16642.04
873.47	16661.29
873.65	16600.34
873.83	16620.33
874.00	16563.89
874.18	16548.49
874.36	16501.22
874.54	16490.41
874.71	16431.51
874.89	16267.67
875.07	16374.82
875.25	16336.24
875.42	16324.03
875.60	16334.52
875.78	16421.92
875.96	16159.29
876.13	16273.90
876.31	15991.20
876.49	15990.62
876.66	15821.79
876.84	16154.62
877.02	15924.10
877.20	15928.86
877.37	15989.80
877.55	15978.74
877.73	15917.06
877.91	15844.97
878.08	15999.63
878.26	15942.21
878.44	15943.76
878.61	16011.51
878.79	15880.36
878.97	15989.31
879.15	16064.51
879.32	15983.33
879.50	15962.85
879.68	16074.59
879.85	15845.13
880.03	15985.79
880.21	15845.71
880.38	16004.71
880.56	15781.89
880.74	15981.28
880.92	15702.68
881.09	15828.10
881.27	15768.38
881.45	15791.40
881.62	15740.69
881.80	15686.29
881.98	15641.32
882.15	15763.71
882.33	15631.57
882.51	15667.53
882.68	15582.67
882.86	15765.92
883.04	15585.29
883.21	15683.10
883.39	15829.24
883.57	15656.07
883.74	15656.39
883.92	15669.25
884.10	15622.07
884.27	15622.23
884.45	15477.81
884.63	15691.62
884.80	15617.24
884.98	15666.96
885.16	15612.65
885.33	15638.21
885.51	15591.02
885.69	15597.66
885.86	15501.16
886.04	15599.87
886.21	15399.41
886.39	15549.16
886.57	15327.16
886.74	15497.23
886.92	15502.80
887.10	15559.65
887.27	15620.35
887.45	15607.32
887.62	15594.22
887.80	15585.45
887.98	15672.61
888.15	15638.21
888.33	15593.64
888.51	15704.73
888.68	15557.93
888.86	15620.19
889.03	15514.26
889.21	15605.52
889.39	15651.81
889.56	15637.88
889.74	15550.55
889.91	15580.78
890.09	15553.26
890.27	15539.66
890.44	15554.98
890.62	15533.76
890.79	15547.03
890.97	15542.12
891.14	15476.50
891.32	15530.16
891.50	15479.53
891.67	15594.87
891.85	15552.03
892.02	15591.84
892.20	15646.15
892.38	15555.06
892.55	15523.60
892.73	15593.56
892.90	15391.30
893.08	15533.19
893.25	15482.97
893.43	15630.83
893.60	15454.87
893.78	15552.36
893.96	15497.63
894.13	15592.99
894.31	15619.04
894.48	15583.40
894.66	15652.05
894.83	15657.05
895.01	15655.90
895.18	15746.75
895.36	15626.49
895.53	15720.62
895.71	15701.94
895.89	15701.94
896.06	15594.54
896.24	15719.31
896.41	15655.90
896.59	15750.19
896.76	15487.97
896.94	15693.42
897.11	15583.24
897.29	15607.32
897.46	15428.09
897.64	15498.78
897.81	15438.24
897.99	15309.80
898.16	15522.46
898.34	15405.23
898.51	15347.56
898.69	15364.03
898.86	15355.59
899.04	15354.36
899.21	15321.67
899.39	15389.75
899.56	15308.40
899.74	15542.53
899.91	15405.56
900.09	15348.79
900.26	15382.38
900.44	15267.36
900.61	15281.62
900.79	15455.45
900.96	15259.82
901.14	15293.82
901.31	15177.50
901.49	15192.24
901.66	15255.89
901.84	15175.12
902.01	15107.87
902.19	15119.99
902.36	15076.08
902.54	15089.76
902.71	15049.29
902.88	15124.58
903.06	14921.09
903.23	15158.98
903.41	15000.22
903.58	14903.81
903.76	14808.37
903.93	14988.59
904.11	15065.92
904.28	14931.90
904.45	14963.77
904.63	14893.65
904.80	14746.85
904.98	14861.13
905.15	14656.98
905.33	14820.99
905.50	14712.85
905.68	14732.35
905.85	14643.63
906.02	14623.73
906.20	14678.12
906.37	14468.24
906.55	14403.86
906.72	14519.44
906.90	14435.97
907.07	14353.39
907.24	14419.34
907.42	14331.28
907.59	14353.97
907.77	14264.18
907.94	14207.41
908.11	14266.31
908.29	14182.68
908.46	14185.62
908.64	14168.75
908.81	14240.67
908.98	14103.21
909.16	14223.80
909.33	14129.18
909.51	14099.20
909.68	14103.71
909.85	14100.18
910.03	14032.52
910.20	13945.11
910.37	13943.23
910.55	13931.51
910.72	13916.19
910.90	13886.70
911.07	13822.48
911.24	13736.63
911.42	13841.40
911.59	13685.18
911.76	13740.56
911.94	13625.05
912.11	13570.25
912.29	13632.59
912.46	13526.18
912.63	13519.54
912.81	13379.63
912.98	13519.05
913.15	13320.07
913.33	13343.01
913.50	13303.60
913.67	13296.89
913.85	13253.80
914.02	13264.45
914.19	13235.78
914.37	13123.14
914.54	13164.75
914.71	13128.46
914.89	13117.40
915.06	13123.88
915.23	13051.38
915.41	12997.07
915.58	12993.95
915.75	12900.32
915.93	12850.02
916.10	12822.58
916.27	12808.73
916.45	12794.81
916.62	12699.70
916.79	12795.79
916.97	12625.40
917.14	12666.69
917.31	12560.11
917.49	12576.08
917.66	12574.45
917.83	12498.34
918.00	12442.48
918.18	12448.13
918.35	12400.61
918.52	12472.29
918.70	12365.31
918.87	12367.03
919.04	12417.82
919.21	12411.59
919.39	12325.50
919.56	12389.72
919.73	12344.42
919.91	12363.34
920.08	12317.14
920.25	12216.71
920.42	12276.02
920.60	12110.87
920.77	12002.08
920.94	12066.71
921.11	11951.21
921.29	12022.72
921.46	11808.10
921.63	11954.89
921.81	11862.57
921.98	11870.68
922.15	11787.86
922.32	11850.37
922.50	11718.07
922.67	11721.92
922.84	11692.67
923.01	11657.78
923.19	11605.84
923.36	11664.66
923.53	11456.50
923.70	11526.95
923.87	11485.17
924.05	11468.05
924.22	11362.46
924.39	11437.82
924.56	11272.02
924.74	11346.81
924.91	11335.18
925.08	11264.16
925.25	11284.88
925.43	11218.04
925.60	11136.77
925.77	11265.30
925.94	11140.05
926.11	11128.42
926.29	11088.60
926.46	11084.84
926.63	11105.97
926.80	11078.36
926.97	10987.52
927.15	11040.68
927.32	10950.82
927.49	10912.48
927.66	10920.83
927.83	10961.14
928.01	10833.59
928.18	10831.30
928.35	10679.67
928.52	10793.70
928.69	10659.02
928.87	10684.17
929.04	10662.22
929.21	10671.56
929.38	10571.53
929.55	10638.54
929.72	10487.24
929.90	10540.81
930.07	10546.14
930.24	10451.03
930.41	10438.74
930.58	10431.94
930.75	10412.69
930.93	10344.13
931.10	10320.70
931.27	10252.13
931.44	10206.50
931.61	10180.04
931.78	10206.50
931.95	10161.28
932.13	10065.52
932.30	10180.94
932.47	10017.11
932.64	10076.74
932.81	10051.68
932.98	10037.42
933.15	10047.58
933.33	9969.92
933.50	10030.79
933.67	9923.88
933.84	9920.85
934.01	9934.94
934.18	9884.48
934.35	9898.08
934.52	9846.31
934.70	9833.77
934.87	9802.56
935.04	9774.05
935.21	9746.04
935.38	9749.89
935.55	9701.06
935.72	9715.73
935.89	9639.71
936.06	9649.21
936.24	9608.09
936.41	9640.28
936.58	9573.35
936.75	9561.23
936.92	9539.44
937.09	9545.83
937.26	9460.06
937.43	9497.99
937.60	9493.32
937.77	9476.36
937.94	9436.79
938.12	9437.86
938.29	9363.48
938.46	9379.61
938.63	9292.54
938.80	9347.42
938.97	9257.56
939.14	9196.61
939.31	9180.39
939.48	9211.11
939.65	9103.71
939.82	9114.85
939.99	9104.61
940.16	9109.94
940.33	9031.54
940.50	9006.48
940.67	8967.24
940.85	9023.35
941.02	8987.88
941.19	8989.60
941.36	8957.57
941.53	9009.01
941.70	8995.74
941.87	8904.32
942.04	8927.34
942.21	8908.50
942.38	8928.98
942.55	8841.82
942.72	8863.61
942.89	8825.03
943.06	8737.86
943.23	8734.59
943.40	8706.00
943.57	8748.76
943.74	8692.07
943.91	8720.41
944.08	8707.39
944.25	8736.80
944.42	8609.01
944.59	8578.04
944.76	8615.80
944.93	8548.79
945.10	8531.59
945.27	8495.79
945.44	8421.00
945.61	8411.58
945.78	8378.40
945.95	8364.97
946.12	8300.91
946.29	8383.73
946.46	8330.15
946.63	8308.94
946.80	8311.72
946.97	8266.83
947.14	8243.73
947.31	8298.45
947.48	8197.20
947.65	8208.91
947.82	8186.39
947.99	8220.22
948.16	8121.26
948.33	8215.55
948.50	8110.69
948.67	8110.04
948.84	8092.84
949.01	8089.39
949.18	8059.82
949.35	8093.65
949.52	7979.79
949.68	8006.90
949.85	8020.75
950.02	7987.32
950.19	7934.57
950.36	7935.96
950.53	7885.25
950.70	7880.67
950.87	7821.11
951.04	7862.56
951.21	7789.00
951.38	7759.26
951.55	7762.46
951.72	7787.61
951.89	7735.75
952.06	7792.77
952.23	7735.83
952.39	7739.60
952.56	7707.08
952.73	7727.40
952.90	7678.33
953.07	7709.37
953.24	7606.16
953.41	7660.22
953.58	7599.27
953.75	7645.48
953.92	7596.24
954.09	7572.65
954.25	7518.18
954.42	7533.90
954.59	7500.15
954.76	7492.53
954.93	7419.46
955.10	7483.52
955.27	7381.21
955.44	7405.86
955.61	7374.24
955.77	7407.75
955.94	7369.90
956.11	7380.14
956.28	7371.38
956.45	7382.44
956.62	7371.21
956.79	7355.16
956.96	7298.47
957.12	7310.35
957.29	7284.87
957.46	7268.16
957.63	7223.02
957.80	7196.97
957.97	7185.91
958.14	7241.86
958.30	7119.80
958.47	7156.01
958.64	7112.76
958.81	7155.85
958.98	7094.08
959.15	7093.84
959.32	7105.96
959.48	7104.16
959.65	7019.21
959.82	7069.10
959.99	7000.28
960.16	7076.72
960.33	7040.02
960.49	7001.43
960.66	6956.13
960.83	6970.06
961.00	6936.06
961.17	6917.38
961.33	6916.07
961.50	6900.43
961.67	6838.41
961.84	6870.85
962.01	6851.85
962.18	6858.16
962.34	6809.91
962.51	6813.84
962.68	6722.25
962.85	6835.22
963.02	6750.02
963.18	6763.29
963.35	6705.79
963.52	6689.81
963.69	6693.25
963.86	6721.60
964.02	6664.83
964.19	6701.94
964.36	6659.01
964.53	6626.74
964.69	6590.69
964.86	6640.42
965.03	6563.25
965.20	6613.71
965.37	6545.96
965.53	6554.48
965.70	6558.66
965.87	6574.88
966.04	6512.21
966.20	6495.83
966.37	6487.72
966.54	6430.05
966.71	6476.09
966.87	6417.60
967.04	6424.23
967.21	6384.67
967.38	6364.35
967.54	6358.78
967.71	6344.69
967.88	6355.91
968.05	6301.19
968.21	6306.19
968.38	6260.39
968.55	6271.45
968.72	6243.27
968.88	6178.56
969.05	6243.93
969.22	6250.15
969.39	6216.65
969.55	6204.12
969.72	6184.37
969.89	6180.85
970.05	6208.29
970.22	6196.25
970.39	6170.53
970.56	6184.37
970.72	6158.41
970.89	6162.42
971.06	6130.80
971.22	6146.12
971.39	6131.62
971.56	6160.86
971.73	6102.54
971.89	6127.03
972.06	6078.04
972.23	6128.75
972.39	6041.67
972.56	6113.84
972.73	6043.80
972.89	6064.77
973.06	6065.67
973.23	6050.36
973.39	5979.82
973.56	6000.47
973.73	5967.86
973.89	5983.59
974.06	5966.63
974.23	5968.27
974.39	5930.10
974.56	5922.81
974.73	5891.60
974.89	5898.31
975.06	5856.70
975.23	5900.69
975.39	5814.43
975.56	5839.50
975.73	5832.04
975.89	5808.86
976.06	5799.68
976.23	5763.07
976.39	5794.69
976.56	5763.97
976.73	5752.17
976.89	5749.39
977.06	5747.17
977.23	5698.27
977.39	5733.90
977.56	5755.78
977.72	5679.84
977.89	5728.17
978.06	5696.06
978.22	5665.75
978.39	5679.92
978.56	5647.97
978.72	5625.61
978.89	5651.98
979.05	5650.76
979.22	5627.16
979.39	5605.37
979.55	5577.36
979.72	5569.16
979.88	5584.24
980.05	5532.55
980.22	5546.23
980.38	5534.35
980.55	5545.16
980.71	5484.05
980.88	5512.31
981.05	5487.49
981.21	5488.97
981.38	5454.56
981.54	5483.64
981.71	5436.21
981.88	5447.76
982.04	5422.94
982.21	5422.61
982.37	5410.41
982.54	5417.53
982.70	5390.75
982.87	5402.79
983.04	5332.34
983.20	5410.57
983.37	5353.39
983.53	5381.90
983.70	5346.75
983.86	5349.13
984.03	5331.03
984.20	5329.31
984.36	5293.02
984.53	5293.67
984.69	5251.48
984.86	5237.07
985.02	5268.77
985.19	5234.69
985.35	5227.89
985.52	5243.70
985.68	5226.99
985.85	5224.29
986.02	5210.85
986.18	5206.59
986.35	5223.71
986.51	5233.38
986.68	5228.87
986.84	5199.55
987.01	5173.25
987.17	5203.56
987.34	5169.65
987.50	5165.30
987.67	5118.20
987.83	5149.17
988.00	5087.07
988.16	5082.24
988.33	5089.28
988.49	5101.00
988.66	5068.31
988.82	5073.15
988.99	5054.88
989.15	5070.77
989.32	5036.86
989.48	5039.48
989.65	5010.56
989.81	5018.42
989.98	4986.64
990.14	4968.29
990.31	4982.13
990.47	4966.98
990.64	4961.16
990.80	4956.66
990.97	4916.68
991.13	4951.09
991.30	4944.45
991.46	4913.81
991.63	4888.83
991.79	4921.60
991.95	4853.28
992.12	4916.60
992.28	4865.97
992.45	4855.08
992.61	4869.33
992.78	4864.50
992.94	4850.16
993.11	4874.98
993.27	4844.43
993.44	4830.18
993.60	4847.54
993.76	4853.52
993.93	4826.24
994.09	4835.66
994.26	4800.52
994.42	4784.30
994.59	4782.09
994.75	4806.91
994.91	4769.88
995.08	4759.56
995.24	4751.45
995.41	4764.64
995.57	4729.42
995.74	4717.46
995.90	4706.15
996.06	4706.56
996.23	4693.70
996.39	4673.14
996.56	4655.28
996.72	4694.68
996.88	4681.57
997.05	4695.91
997.21	4647.50
997.38	4649.46
997.54	4637.75
997.70	4636.36
997.87	4669.61
998.03	4630.87
998.20	4608.26
998.36	4633.49
998.52	4569.92
998.69	4626.36
998.85	4590.15
999.02	4583.19
999.18	4577.13
999.34	4593.59
999.51	4567.13
999.67	4583.93
999.83	4567.30
1000.00	4560.99
1000.16	4547.47
1000.33	4538.30
1000.49	4512.33
1000.65	4543.71
1000.82	4533.71
1000.98	4524.04
1001.14	4527.49
1001.31	4528.30
1001.47	4504.71
1001.63	4521.42
1001.80	4513.48
1001.96	4481.04
1002.12	4487.18
1002.29	4504.63
1002.45	4480.38
1002.61	4459.82
1002.78	4451.71
1002.94	4453.92
1003.10	4428.36
1003.27	4442.21
1003.43	4408.29
1003.59	4422.06
1003.76	4413.04
1003.92	4430.33
1004.08	4392.97
1004.25	4425.41
1004.41	4371.02
1004.57	4384.54
1004.74	4362.34
1004.90	4384.62
1005.06	4336.61
1005.23	4358.57
1005.39	4350.13
1005.55	4356.36
1005.71	4348.90
1005.88	4327.77
1006.04	4331.21
1006.20	4320.89
1006.37	4266.82
1006.53	4295.08
1006.69	4294.84
1006.85	4301.72
1007.02	4272.31
1007.18	4299.67
1007.34	4292.87
1007.51	4294.75
1007.67	4262.64
1007.83	4265.76
1007.99	4259.45
1008.16	4243.47
1008.32	4226.19
1008.48	4265.51
1008.64	4225.94
1008.81	4223.89
1008.97	4230.20
1009.13	4218.24
1009.29	4210.62
1009.46	4199.24
1009.62	4208.74
1009.78	4180.15
1009.95	4184.74
1010.11	4187.11
1010.27	4159.67
1010.43	4168.35
1010.59	4177.20
1010.76	4179.58
1010.92	4162.62
1011.08	4160.82
1011.24	4132.47
1011.41	4195.30
1011.57	4129.61
1011.73	4129.52
1011.89	4077.67
1012.06	4113.96
1012.22	4095.77
1012.38	4128.87
1012.54	4081.60
1012.70	4101.02
1012.87	4064.32
1013.03	4108.88
1013.19	4100.36
1013.35	4113.14
1013.51	4055.55
1013.68	4102.65
1013.84	4056.29
1014.00	4064.64
1014.16	4029.50
1014.32	4052.93
1014.49	4031.55
1014.65	4073.98
1014.81	4009.84
1014.97	4043.92
1015.13	4016.23
1015.30	4024.50
1015.46	4039.09
1015.62	4031.80
1015.78	4006.48
1015.94	4020.33
1016.10	3992.47
1016.27	3994.85
1016.43	3976.50
1016.59	3989.53
1016.75	3963.07
1016.91	3988.13
1017.07	3947.25
1017.24	3977.16
1017.40	3941.11
1017.56	3957.90
1017.72	3922.35
1017.88	3943.98
1018.04	3926.37
1018.21	3930.22
1018.37	3946.35
1018.53	3935.95
1018.69	3925.46
1018.85	3910.23
1019.01	3898.10
1019.17	3926.86
1019.34	3893.93
1019.50	3923.50
1019.66	3876.07
1019.82	3883.28
1019.98	3898.60
1020.14	3911.78
1020.30	3857.06
1020.46	3877.54
1020.63	3869.68
1020.79	3850.18
1020.95	3862.80
1021.11	3861.16
1021.27	3831.91
1021.43	3827.49
1021.59	3850.92
1021.75	3838.06
1021.91	3793.90
1022.07	3807.34
1022.24	3796.11
1022.40	3806.68
1022.56	3775.64
1022.72	3829.62
1022.88	3786.69
1023.04	3798.74
1023.20	3779.08
1023.36	3788.09
1023.52	3793.98
1023.68	3795.95
1023.84	3771.38
1024.01	3783.09
1024.17	3754.17
1024.33	3774.65
1024.49	3785.96
1024.65	3772.69
1024.81	3752.12
1024.97	3778.17
1025.13	3759.33
1025.29	3766.05
1025.45	3728.12
1025.61	3761.71
1025.77	3729.76
1025.93	3736.48
1026.09	3730.50
1026.25	3751.96
1026.41	3723.37
1026.57	3736.97
1026.73	3747.05
1026.90	3729.84
1027.06	3711.74
1027.22	3732.38
1027.38	3715.51
1027.54	3751.96
1027.70	3699.29
1027.86	3725.01
1028.02	3706.58
1028.18	3698.63
1028.34	3691.01
1028.50	3711.98
1028.66	3668.08
1028.82	3705.35
1028.98	3664.64
1029.14	3672.50
1029.30	3680.53
1029.46	3681.76
1029.62	3674.30
1029.78	3656.28
1029.94	3673.07
1030.10	3659.06
1030.26	3624.41
1030.42	3643.17
1030.58	3622.94
1030.74	3643.66
1030.90	3612.53
1031.06	3632.69
1031.22	3610.65
1031.38	3627.20
1031.54	3618.19
1031.70	3606.72
1031.86	3611.22
1032.02	3611.80
1032.18	3582.72
1032.34	3605.33
1032.50	3589.19
1032.66	3607.87
1032.82	3584.52
1032.98	3627.28
1033.14	3608.03
1033.30	3601.48
1033.45	3581.49
1033.61	3606.88
1033.77	3582.23
1033.93	3611.06
1034.09	3570.26
1034.25	3601.39
1034.41	3573.13
1034.57	3580.91
1034.73	3556.83
1034.89	3562.56
1035.05	3561.58
1035.21	3583.45
1035.37	3550.77
1035.53	3566.09
1035.69	3558.63
1035.85	3572.80
1036.01	3545.77
1036.16	3567.15
1036.32	3538.89
1036.48	3543.56
1036.64	3526.44
1036.80	3568.79
1036.96	3532.58
1037.12	3513.99
1037.28	3516.53
1037.44	3513.41
1037.60	3521.77
1037.76	3525.78
1037.91	3522.42
1038.07	3527.26
1038.23	3511.86
1038.39	3525.86
1038.55	3498.59
1038.71	3516.53
1038.87	3491.21
1039.03	3522.26
1039.19	3490.31
1039.35	3497.68
1039.50	3492.52
1039.66	3518.25
1039.82	3477.29
1039.98	3503.58
1040.14	3482.94
1040.30	3490.31
1040.46	3467.46
1040.62	3469.75
1040.77	3477.78
1040.93	3505.63
1041.09	3486.22
1041.25	3486.54
1041.41	3475.81
1041.57	3484.91
1041.73	3484.91
1041.88	3484.91

